 => TITLE: 
 => Data file name: C:\Users\stefano\Nextcloud2\uni\master-thesis\XRD\data\G104\G104--5-40-0.01-1000ms.xy
 => Instrm        :    1
 => Lambda(1&2)   :   1.54060  1.54060
 => Numb.of.points:      2951
 => Numb.of.peaks :         7
    2Theta     Yobs     Ycalc  Yobs-Ycal    Backg    Bragg     Posr  Intensity   FWHM    Eta
    6.0086     23.60     24.81    -29.86     20.00   18.6223     -3.49     150.43  0.7285  0.6150
    6.0187     23.41     24.82    -30.05     20.00   20.5794     -3.49      27.18  0.6473  0.6150
    6.0289     23.25     24.82    -30.22     20.00   22.5013     -3.49     109.01  1.0033  0.6150
    6.0391     23.54     24.83    -29.94     20.00   28.5130     -3.49      66.04  1.4267  0.6150
    6.0492     23.79     24.84    -29.69     20.00   30.0909     -3.49      29.69  2.8568  0.6150
    6.0594     23.55     24.84    -29.94     20.00   33.2498     -3.49      21.22  2.8568  0.6150
    6.0696     23.67     24.85    -29.83     20.00   19.5955     -3.49    1100.40  8.6949  0.6150
    6.0797     23.54     24.86    -29.96     20.00
    6.0899     23.49     24.87    -30.02     20.00
    6.1001     23.78     24.87    -29.74     20.00
    6.1102     23.43     24.88    -30.10     20.00
    6.1204     23.30     24.89    -30.23     20.00
    6.1306     23.27     24.89    -30.27     20.00
    6.1407     23.95     24.90    -29.60     20.00
    6.1509     22.48     24.91    -31.08     20.00
    6.1611     23.28     24.92    -30.28     20.00
    6.1712     23.31     24.92    -30.26     20.00
    6.1814     23.02     24.93    -30.56     20.00
    6.1915     23.37     24.94    -30.21     20.00
    6.2017     23.00     24.95    -30.59     20.00
    6.2119     22.69     24.95    -30.91     20.00
    6.2220     23.25     24.96    -30.36     20.00
    6.2322     22.74     24.97    -30.87     20.00
    6.2424     23.20     24.98    -30.42     20.00
    6.2525     23.38     24.98    -30.25     20.00
    6.2627     22.68     24.99    -30.96     20.00
    6.2729     23.12     25.00    -30.52     20.00
    6.2830     22.99     25.00    -30.66     20.00
    6.2932     22.10     25.01    -31.56     20.00
    6.3034     22.79     25.02    -30.88     20.00
    6.3135     21.96     25.03    -31.71     20.00
    6.3237     23.51     25.03    -30.17     20.00
    6.3338     23.04     25.04    -30.65     20.00
    6.3440     22.06     25.05    -31.64     20.00
    6.3542     22.32     25.06    -31.38     20.00
    6.3643     22.34     25.07    -31.37     20.00
    6.3745     21.66     25.07    -32.06     20.00
    6.3847     22.23     25.08    -31.50     20.00
    6.3948     23.51     25.09    -30.22     20.00
    6.4050     22.71     25.10    -31.03     20.00
    6.4152     22.62     25.10    -31.13     20.00
    6.4253     22.40     25.11    -31.36     20.00
    6.4355     22.89     25.12    -30.88     20.00
    6.4457     22.93     25.13    -30.84     20.00
    6.4558     23.21     25.14    -30.57     20.00
    6.4660     23.37     25.14    -30.42     20.00
    6.4762     22.77     25.15    -31.03     20.00
    6.4863     23.15     25.16    -30.65     20.00
    6.4965     23.40     25.17    -30.41     20.00
    6.5066     22.84     25.17    -30.98     20.00
    6.5168     22.55     25.18    -31.28     20.00
    6.5270     23.10     25.19    -30.74     20.00
    6.5371     22.46     25.20    -31.38     20.00
    6.5473     23.01     25.21    -30.84     20.00
    6.5575     23.58     25.21    -30.28     20.00
    6.5676     23.68     25.22    -30.19     20.00
    6.5778     22.99     25.23    -30.89     20.00
    6.5880     23.52     25.24    -30.36     20.00
    6.5981     22.86     25.25    -31.03     20.00
    6.6083     23.83     25.26    -30.07     20.00
    6.6185     23.23     25.26    -30.68     20.00
    6.6286     22.68     25.27    -31.24     20.00
    6.6388     22.76     25.28    -31.17     20.00
    6.6489     24.25     25.29    -29.68     20.00
    6.6591     21.93     25.30    -32.01     20.00
    6.6693     23.70     25.30    -30.25     20.00
    6.6794     23.09     25.31    -30.87     20.00
    6.6896     23.21     25.32    -30.76     20.00
    6.6998     23.22     25.33    -30.76     20.00
    6.7099     22.89     25.34    -31.09     20.00
    6.7201     22.51     25.35    -31.48     20.00
    6.7303     23.02     25.35    -30.98     20.00
    6.7404     23.95     25.36    -30.06     20.00
    6.7506     23.16     25.37    -30.86     20.00
    6.7608     23.13     25.38    -30.90     20.00
    6.7709     23.45     25.39    -30.58     20.00
    6.7811     22.51     25.40    -31.53     20.00
    6.7913     23.44     25.41    -30.61     20.00
    6.8014     23.28     25.41    -30.78     20.00
    6.8116     23.37     25.42    -30.70     20.00
    6.8217     23.51     25.43    -30.57     20.00
    6.8319     23.16     25.44    -30.93     20.00
    6.8421     23.68     25.45    -30.42     20.00
    6.8522     23.41     25.46    -30.69     20.00
    6.8624     23.48     25.47    -30.63     20.00
    6.8726     23.49     25.48    -30.63     20.00
    6.8827     23.55     25.48    -30.58     20.00
    6.8929     23.96     25.49    -30.18     20.00
    6.9031     22.62     25.50    -31.53     20.00
    6.9132     23.60     25.51    -30.56     20.00
    6.9234     23.67     25.52    -30.50     20.00
    6.9336     23.63     25.53    -30.54     20.00
    6.9437     23.46     25.54    -30.72     20.00
    6.9539     23.03     25.55    -31.16     20.00
    6.9640     23.46     25.56    -30.74     20.00
    6.9742     23.13     25.56    -31.08     20.00
    6.9844     23.80     25.57    -30.42     20.00
    6.9945     23.62     25.58    -30.61     20.00
    7.0047     24.31     25.59    -29.93     20.00
    7.0149     23.77     25.60    -30.48     20.00
    7.0250     22.82     25.61    -31.44     20.00
    7.0352     23.93     25.62    -30.34     20.00
    7.0454     24.55     25.63    -29.73     20.00
    7.0555     23.20     25.64    -31.08     20.00
    7.0657     23.62     25.65    -30.67     20.00
    7.0759     23.21     25.66    -31.09     20.00
    7.0860     23.88     25.67    -30.43     20.00
    7.0962     23.84     25.68    -30.48     20.00
    7.1064     24.13     25.69    -30.20     20.00
    7.1165     22.98     25.69    -31.36     20.00
    7.1267     23.36     25.70    -30.99     20.00
    7.1368     23.99     25.71    -30.37     20.00
    7.1470     24.07     25.72    -30.30     20.00
    7.1572     24.01     25.73    -30.37     20.00
    7.1673     23.85     25.74    -30.54     20.00
    7.1775     24.07     25.75    -30.33     20.00
    7.1877     23.90     25.76    -30.51     20.00
    7.1978     24.39     25.77    -30.03     20.00
    7.2080     23.79     25.78    -30.64     20.00
    7.2182     24.65     25.79    -29.79     20.00
    7.2283     24.55     25.80    -29.90     20.00
    7.2385     23.64     25.81    -30.82     20.00
    7.2487     24.02     25.82    -30.45     20.00
    7.2588     24.35     25.83    -30.13     20.00
    7.2690     23.89     25.84    -30.60     20.00
    7.2791     24.11     25.85    -30.39     20.00
    7.2893     24.65     25.86    -29.86     20.00
    7.2995     24.40     25.87    -30.12     20.00
    7.3096     24.88     25.88    -29.65     20.00
    7.3198     24.90     25.89    -29.64     20.00
    7.3300     24.02     25.90    -30.53     20.00
    7.3401     24.05     25.91    -30.51     20.00
    7.3503     24.12     25.92    -30.45     20.00
    7.3605     23.71     25.93    -30.87     20.00
    7.3706     24.74     25.94    -29.85     20.00
    7.3808     24.70     25.95    -29.90     20.00
    7.3910     24.96     25.96    -29.65     20.00
    7.4011     25.19     25.97    -29.43     20.00
    7.4113     24.19     25.98    -30.44     20.00
    7.4215     23.45     25.99    -31.19     20.00
    7.4316     24.29     26.00    -30.36     20.00
    7.4418     24.35     26.01    -30.31     20.00
    7.4519     24.47     26.02    -30.20     20.00
    7.4621     24.63     26.03    -30.05     20.00
    7.4723     23.88     26.04    -30.81     20.00
    7.4824     24.43     26.05    -30.27     20.00
    7.4926     23.68     26.07    -31.03     20.00
    7.5028     25.14     26.08    -29.58     20.00
    7.5129     24.62     26.09    -30.11     20.00
    7.5231     24.68     26.10    -30.06     20.00
    7.5333     25.57     26.11    -29.18     20.00
    7.5434     24.26     26.12    -30.50     20.00
    7.5536     24.76     26.13    -30.02     20.00
    7.5638     25.20     26.14    -29.59     20.00
    7.5739     24.80     26.15    -30.00     20.00
    7.5841     24.47     26.16    -30.34     20.00
    7.5942     24.30     26.17    -30.52     20.00
    7.6044     24.58     26.18    -30.25     20.00
    7.6146     25.42     26.20    -29.42     20.00
    7.6247     25.45     26.21    -29.40     20.00
    7.6349     24.28     26.22    -30.58     20.00
    7.6451     24.87     26.23    -30.00     20.00
    7.6552     25.31     26.24    -29.58     20.00
    7.6654     25.45     26.25    -29.45     20.00
    7.6756     25.01     26.26    -29.90     20.00
    7.6857     25.34     26.27    -29.58     20.00
    7.6959     24.54     26.28    -30.39     20.00
    7.7061     24.60     26.30    -30.34     20.00
    7.7162     25.60     26.31    -29.35     20.00
    7.7264     25.27     26.32    -29.70     20.00
    7.7365     25.77     26.33    -29.21     20.00
    7.7467     24.91     26.34    -30.08     20.00
    7.7569     24.46     26.35    -30.54     20.00
    7.7670     25.01     26.37    -30.00     20.00
    7.7772     25.35     26.38    -29.67     20.00
    7.7874     25.46     26.39    -29.57     20.00
    7.7975     25.00     26.40    -30.05     20.00
    7.8077     25.01     26.41    -30.05     20.00
    7.8179     24.61     26.42    -30.46     20.00
    7.8280     25.48     26.44    -29.60     20.00
    7.8382     26.05     26.45    -29.04     20.00
    7.8484     25.49     26.46    -29.62     20.00
    7.8585     24.94     26.47    -30.18     20.00
    7.8687     25.88     26.48    -29.25     20.00
    7.8789     25.60     26.50    -29.54     20.00
    7.8890     24.87     26.51    -30.28     20.00
    7.8992     25.20     26.52    -29.97     20.00
    7.9093     25.05     26.53    -30.13     20.00
    7.9195     25.35     26.54    -29.84     20.00
    7.9297     25.74     26.56    -29.46     20.00
    7.9398     26.48     26.57    -28.73     20.00
    7.9500     25.94     26.58    -29.29     20.00
    7.9602     26.41     26.59    -28.83     20.00
    7.9703     25.89     26.61    -29.36     20.00
    7.9805     25.57     26.62    -29.69     20.00
    7.9907     26.16     26.63    -29.12     20.00
    8.0008     26.47     26.64    -28.82     20.00
    8.0110     25.49     26.66    -29.81     20.00
    8.0212     26.33     26.67    -28.98     20.00
    8.0313     25.80     26.68    -29.53     20.00
    8.0415     26.12     26.69    -29.22     20.00
    8.0516     26.15     26.71    -29.20     20.00
    8.0618     25.54     26.72    -29.83     20.00
    8.0720     25.94     26.73    -29.44     20.00
    8.0821     26.38     26.74    -29.01     20.00
    8.0923     25.61     26.76    -29.79     20.00
    8.1025     25.93     26.77    -29.49     20.00
    8.1126     26.69     26.78    -28.74     20.00
    8.1228     25.91     26.80    -29.53     20.00
    8.1330     25.71     26.81    -29.75     20.00
    8.1431     26.18     26.82    -29.29     20.00
    8.1533     26.55     26.84    -28.93     20.00
    8.1635     26.01     26.85    -29.49     20.00
    8.1736     26.91     26.86    -28.60     20.00
    8.1838     26.16     26.88    -29.36     20.00
    8.1940     27.05     26.89    -28.49     20.00
    8.2041     26.32     26.90    -29.23     20.00
    8.2143     26.63     26.92    -28.93     20.00
    8.2244     26.05     26.93    -29.53     20.00
    8.2346     26.77     26.94    -28.82     20.00
    8.2448     26.40     26.96    -29.20     20.00
    8.2549     26.87     26.97    -28.75     20.00
    8.2651     26.87     26.98    -28.76     20.00
    8.2753     26.43     27.00    -29.21     20.00
    8.2854     27.32     27.01    -28.34     20.00
    8.2956     26.66     27.03    -29.01     20.00
    8.3058     27.37     27.04    -28.32     20.00
    8.3159     26.56     27.05    -29.14     20.00
    8.3261     27.23     27.07    -28.48     20.00
    8.3363     25.96     27.08    -29.77     20.00
    8.3464     26.57     27.10    -29.17     20.00
    8.3566     28.00     27.11    -27.76     20.00
    8.3667     26.66     27.13    -29.11     20.00
    8.3769     27.59     27.14    -28.20     20.00
    8.3871     26.79     27.15    -29.01     20.00
    8.3972     26.50     27.17    -29.31     20.00
    8.4074     25.93     27.18    -29.90     20.00
    8.4176     26.72     27.20    -29.12     20.00
    8.4277     26.70     27.21    -29.16     20.00
    8.4379     26.48     27.23    -29.39     20.00
    8.4481     26.86     27.24    -29.03     20.00
    8.4582     27.38     27.26    -28.52     20.00
    8.4684     27.61     27.27    -28.31     20.00
    8.4786     26.89     27.29    -29.04     20.00
    8.4887     27.12     27.30    -28.83     20.00
    8.4989     27.20     27.32    -28.76     20.00
    8.5091     27.77     27.33    -28.21     20.00
    8.5192     27.77     27.35    -28.22     20.00
    8.5294     27.40     27.36    -28.61     20.00
    8.5395     27.50     27.38    -28.52     20.00
    8.5497     27.46     27.39    -28.58     20.00
    8.5599     27.21     27.41    -28.84     20.00
    8.5700     27.51     27.42    -28.56     20.00
    8.5802     27.22     27.44    -28.86     20.00
    8.5904     27.51     27.45    -28.59     20.00
    8.6005     27.16     27.47    -28.95     20.00
    8.6107     28.41     27.48    -27.72     20.00
    8.6209     27.69     27.50    -28.45     20.00
    8.6310     28.67     27.51    -27.49     20.00
    8.6412     27.99     27.53    -28.19     20.00
    8.6514     28.02     27.55    -28.17     20.00
    8.6615     27.35     27.56    -28.86     20.00
    8.6717     27.02     27.58    -29.20     20.00
    8.6818     27.21     27.59    -29.03     20.00
    8.6920     28.35     27.61    -27.91     20.00
    8.7022     28.76     27.63    -27.51     20.00
    8.7123     28.36     27.64    -27.93     20.00
    8.7225     28.98     27.66    -27.32     20.00
    8.7327     27.15     27.67    -29.17     20.00
    8.7428     28.61     27.69    -27.73     20.00
    8.7530     28.42     27.71    -27.93     20.00
    8.7632     26.96     27.72    -29.41     20.00
    8.7733     27.76     27.74    -28.63     20.00
    8.7835     28.38     27.76    -28.02     20.00
    8.7937     28.68     27.77    -27.74     20.00
    8.8038     28.60     27.79    -27.84     20.00
    8.8140     28.10     27.81    -28.35     20.00
    8.8242     28.35     27.82    -28.12     20.00
    8.8343     28.54     27.84    -27.95     20.00
    8.8445     27.81     27.86    -28.69     20.00
    8.8546     28.79     27.87    -27.73     20.00
    8.8648     28.42     27.89    -28.12     20.00
    8.8750     28.08     27.91    -28.48     20.00
    8.8851     28.74     27.93    -27.83     20.00
    8.8953     28.77     27.94    -27.82     20.00
    8.9055     28.88     27.96    -27.73     20.00
    8.9156     27.57     27.98    -29.05     20.00
    8.9258     28.27     28.00    -28.37     20.00
    8.9360     28.48     28.01    -28.18     20.00
    8.9461     29.63     28.03    -27.05     20.00
    8.9563     29.03     28.05    -27.66     20.00
    8.9665     29.15     28.07    -27.56     20.00
    8.9766     28.89     28.08    -27.84     20.00
    8.9868     29.22     28.10    -27.53     20.00
    8.9969     29.03     28.12    -27.74     20.00
    9.0071     28.09     28.14    -28.69     20.00
    9.0173     28.76     28.16    -28.04     20.00
    9.0274     28.91     28.17    -27.91     20.00
    9.0376     28.50     28.19    -28.34     20.00
    9.0478     28.64     28.21    -28.22     20.00
    9.0579     29.30     28.23    -27.58     20.00
    9.0681     28.38     28.25    -28.51     20.00
    9.0783     29.18     28.27    -27.73     20.00
    9.0884     29.15     28.28    -27.78     20.00
    9.0986     28.21     28.30    -28.74     20.00
    9.1088     29.42     28.32    -27.55     20.00
    9.1189     28.60     28.34    -28.39     20.00
    9.1291     28.55     28.36    -28.46     20.00
    9.1393     29.68     28.38    -27.35     20.00
    9.1494     29.22     28.40    -27.82     20.00
    9.1596     28.79     28.42    -28.27     20.00
    9.1697     29.15     28.44    -27.93     20.00
    9.1799     29.03     28.46    -28.07     20.00
    9.1901     28.66     28.48    -28.46     20.00
    9.2002     29.40     28.49    -27.74     20.00
    9.2104     28.38     28.51    -28.78     20.00
    9.2206     28.71     28.53    -28.47     20.00
    9.2307     29.26     28.55    -27.94     20.00
    9.2409     29.65     28.57    -27.57     20.00
    9.2511     29.79     28.59    -27.45     20.00
    9.2612     29.62     28.61    -27.64     20.00
    9.2714     29.78     28.63    -27.50     20.00
    9.2816     29.32     28.65    -27.98     20.00
    9.2917     30.18     28.67    -27.14     20.00
    9.3019     30.23     28.69    -27.11     20.00
    9.3120     29.87     28.71    -27.49     20.00
    9.3222     29.48     28.73    -27.90     20.00
    9.3324     29.84     28.75    -27.56     20.00
    9.3425     29.73     28.77    -27.69     20.00
    9.3527     29.38     28.79    -28.06     20.00
    9.3629     29.01     28.82    -28.45     20.00
    9.3730     30.04     28.84    -27.44     20.00
    9.3832     30.08     28.86    -27.42     20.00
    9.3934     30.00     28.88    -27.52     20.00
    9.4035     29.50     28.90    -28.04     20.00
    9.4137     29.88     28.92    -27.69     20.00
    9.4239     30.76     28.94    -26.83     20.00
    9.4340     29.62     28.96    -27.99     20.00
    9.4442     29.70     28.98    -27.93     20.00
    9.4544     30.41     29.01    -27.24     20.00
    9.4645     30.09     29.03    -27.58     20.00
    9.4747     30.84     29.05    -26.85     20.00
    9.4848     29.92     29.07    -27.80     20.00
    9.4950     29.40     29.09    -28.34     20.00
    9.5052     29.93     29.11    -27.83     20.00
    9.5153     30.23     29.14    -27.55     20.00
    9.5255     29.82     29.16    -27.98     20.00
    9.5357     30.20     29.18    -27.63     20.00
    9.5458     30.37     29.20    -27.48     20.00
    9.5560     30.03     29.22    -27.84     20.00
    9.5662     29.97     29.25    -27.92     20.00
    9.5763     30.07     29.27    -27.84     20.00
    9.5865     29.65     29.29    -28.29     20.00
    9.5967     30.38     29.31    -27.58     20.00
    9.6068     30.79     29.34    -27.19     20.00
    9.6170     30.41     29.36    -27.60     20.00
    9.6271     30.26     29.38    -27.77     20.00
    9.6373     31.10     29.41    -26.95     20.00
    9.6475     30.90     29.43    -27.17     20.00
    9.6576     30.32     29.45    -27.78     20.00
    9.6678     30.57     29.47    -27.55     20.00
    9.6780     30.38     29.50    -27.76     20.00
    9.6881     30.35     29.52    -27.82     20.00
    9.6983     30.73     29.55    -27.46     20.00
    9.7085     30.54     29.57    -27.68     20.00
    9.7186     30.50     29.59    -27.74     20.00
    9.7288     31.07     29.62    -27.19     20.00
    9.7390     31.04     29.64    -27.25     20.00
    9.7491     31.06     29.66    -27.25     20.00
    9.7593     30.89     29.69    -27.44     20.00
    9.7694     30.52     29.71    -27.84     20.00
    9.7796     30.34     29.74    -28.04     20.00
    9.7898     31.29     29.76    -27.12     20.00
    9.7999     29.79     29.79    -28.64     20.00
    9.8101     30.54     29.81    -27.92     20.00
    9.8203     31.46     29.84    -27.02     20.00
    9.8304     31.39     29.86    -27.12     20.00
    9.8406     30.57     29.88    -27.96     20.00
    9.8508     30.93     29.91    -27.63     20.00
    9.8609     31.09     29.93    -27.49     20.00
    9.8711     31.68     29.96    -26.93     20.00
    9.8813     30.98     29.99    -27.65     20.00
    9.8914     30.76     30.01    -27.90     20.00
    9.9016     31.75     30.04    -26.93     20.00
    9.9118     29.95     30.06    -28.76     20.00
    9.9219     30.76     30.09    -27.97     20.00
    9.9321     31.98     30.11    -26.78     20.00
    9.9422     30.88     30.14    -27.91     20.00
    9.9524     30.99     30.17    -27.82     20.00
    9.9626     31.64     30.19    -27.20     20.00
    9.9727     31.65     30.22    -27.21     20.00
    9.9829     30.97     30.24    -27.92     20.00
    9.9931     31.20     30.27    -27.72     20.00
   10.0032     32.35     30.30    -26.59     20.00
   10.0134     31.32     30.32    -27.65     20.00
   10.0236     31.62     30.35    -27.38     20.00
   10.0337     32.01     30.38    -27.01     20.00
   10.0439     32.35     30.40    -26.70     20.00
   10.0541     31.91     30.43    -27.17     20.00
   10.0642     31.32     30.46    -27.78     20.00
   10.0744     31.12     30.49    -28.01     20.00
   10.0845     31.97     30.51    -27.19     20.00
   10.0947     31.90     30.54    -27.29     20.00
   10.1049     32.09     30.57    -27.12     20.00
   10.1150     31.59     30.60    -27.65     20.00
   10.1252     32.49     30.62    -26.78     20.00
   10.1354     32.47     30.65    -26.83     20.00
   10.1455     31.84     30.68    -27.49     20.00
   10.1557     32.26     30.71    -27.09     20.00
   10.1659     31.31     30.74    -28.07     20.00
   10.1760     32.44     30.76    -26.97     20.00
   10.1862     31.84     30.79    -27.60     20.00
   10.1964     32.71     30.82    -26.76     20.00
   10.2065     32.51     30.85    -26.99     20.00
   10.2167     31.81     30.88    -27.72     20.00
   10.2269     31.96     30.91    -27.59     20.00
   10.2370     32.87     30.94    -26.71     20.00
   10.2472     32.24     30.97    -27.37     20.00
   10.2573     31.87     31.00    -27.77     20.00
   10.2675     32.26     31.03    -27.41     20.00
   10.2777     32.47     31.06    -27.23     20.00
   10.2878     32.27     31.08    -27.46     20.00
   10.2980     33.00     31.11    -26.76     20.00
   10.3082     32.25     31.14    -27.54     20.00
   10.3183     32.43     31.17    -27.39     20.00
   10.3285     32.57     31.20    -27.28     20.00
   10.3387     31.59     31.24    -28.29     20.00
   10.3488     31.96     31.27    -27.95     20.00
   10.3590     31.92     31.30    -28.02     20.00
   10.3692     32.38     31.33    -27.59     20.00
   10.3793     31.93     31.36    -28.07     20.00
   10.3895     32.49     31.39    -27.54     20.00
   10.3996     32.20     31.42    -27.87     20.00
   10.4098     31.80     31.45    -28.30     20.00
   10.4200     33.69     31.48    -26.44     20.00
   10.4301     32.73     31.51    -27.43     20.00
   10.4403     32.88     31.54    -27.31     20.00
   10.4505     32.65     31.58    -27.57     20.00
   10.4606     32.36     31.61    -27.89     20.00
   10.4708     33.38     31.64    -26.91     20.00
   10.4810     32.36     31.67    -27.96     20.00
   10.4911     33.30     31.70    -27.05     20.00
   10.5013     32.93     31.74    -27.45     20.00
   10.5115     32.87     31.77    -27.55     20.00
   10.5216     32.78     31.80    -27.67     20.00
   10.5318     32.55     31.83    -27.93     20.00
   10.5420     32.59     31.87    -27.92     20.00
   10.5521     32.43     31.90    -28.12     20.00
   10.5623     34.65     31.93    -25.93     20.00
   10.5724     33.40     31.97    -27.21     20.00
   10.5826     32.81     32.00    -27.84     20.00
   10.5928     33.13     32.03    -27.55     20.00
   10.6029     32.95     32.07    -27.76     20.00
   10.6131     33.13     32.10    -27.62     20.00
   10.6233     33.82     32.13    -26.96     20.00
   10.6334     33.01     32.17    -27.80     20.00
   10.6436     32.58     32.20    -28.27     20.00
   10.6538     32.84     32.24    -28.04     20.00
   10.6639     33.16     32.27    -27.76     20.00
   10.6741     33.47     32.31    -27.48     20.00
   10.6843     32.76     32.34    -28.23     20.00
   10.6944     33.72     32.38    -27.30     20.00
   10.7046     32.76     32.41    -28.30     20.00
   10.7147     32.75     32.45    -28.34     20.00
   10.7249     32.74     32.48    -28.39     20.00
   10.7351     33.13     32.52    -28.03     20.00
   10.7452     33.74     32.55    -27.46     20.00
   10.7554     33.43     32.59    -27.80     20.00
   10.7656     32.32     32.62    -28.95     20.00
   10.7757     33.23     32.66    -28.07     20.00
   10.7859     33.46     32.69    -27.88     20.00
   10.7961     33.66     32.73    -27.72     20.00
   10.8062     33.00     32.77    -28.41     20.00
   10.8164     34.43     32.80    -27.02     20.00
   10.8266     33.66     32.84    -27.83     20.00
   10.8367     32.86     32.88    -28.66     20.00
   10.8469     33.87     32.91    -27.69     20.00
   10.8571     33.26     32.95    -28.34     20.00
   10.8672     34.63     32.99    -27.00     20.00
   10.8774     33.97     33.03    -27.70     20.00
   10.8875     33.57     33.06    -28.14     20.00
   10.8977     34.04     33.10    -27.71     20.00
   10.9079     32.97     33.14    -28.82     20.00
   10.9180     34.20     33.18    -27.62     20.00
   10.9282     33.71     33.22    -28.15     20.00
   10.9384     34.73     33.25    -27.17     20.00
   10.9485     34.23     33.29    -27.71     20.00
   10.9587     34.12     33.33    -27.86     20.00
   10.9689     34.71     33.37    -27.31     20.00
   10.9790     34.34     33.41    -27.71     20.00
   10.9892     34.29     33.45    -27.80     20.00
   10.9994     35.05     33.49    -27.08     20.00
   11.0095     34.94     33.53    -27.23     20.00
   11.0197     34.50     33.57    -27.71     20.00
   11.0298     34.35     33.60    -27.90     20.00
   11.0400     33.48     33.64    -28.81     20.00
   11.0502     34.23     33.68    -28.10     20.00
   11.0603     34.10     33.72    -28.27     20.00
   11.0705     34.52     33.76    -27.89     20.00
   11.0807     35.21     33.81    -27.24     20.00
   11.0908     34.56     33.85    -27.93     20.00
   11.1010     35.62     33.89    -26.91     20.00
   11.1112     34.43     33.93    -28.14     20.00
   11.1213     34.71     33.97    -27.90     20.00
   11.1315     35.35     34.01    -27.31     20.00
   11.1417     34.80     34.05    -27.90     20.00
   11.1518     34.81     34.09    -27.93     20.00
   11.1620     34.78     34.13    -28.00     20.00
   11.1722     34.86     34.18    -27.96     20.00
   11.1823     35.21     34.22    -27.65     20.00
   11.1925     36.99     34.26    -25.92     20.00
   11.2026     34.95     34.30    -28.00     20.00
   11.2128     35.82     34.35    -27.17     20.00
   11.2230     35.07     34.39    -27.96     20.00
   11.2331     34.98     34.43    -28.10     20.00
   11.2433     35.15     34.47    -27.97     20.00
   11.2535     35.21     34.52    -27.95     20.00
   11.2636     34.87     34.56    -28.34     20.00
   11.2738     34.95     34.60    -28.30     20.00
   11.2840     35.87     34.65    -27.42     20.00
   11.2941     35.29     34.69    -28.05     20.00
   11.3043     35.74     34.74    -27.64     20.00
   11.3145     34.97     34.78    -28.46     20.00
   11.3246     35.16     34.82    -28.31     20.00
   11.3348     35.03     34.87    -28.49     20.00
   11.3449     35.27     34.91    -28.29     20.00
   11.3551     35.62     34.96    -27.98     20.00
   11.3653     36.05     35.00    -27.60     20.00
   11.3754     35.26     35.05    -28.43     20.00
   11.3856     35.77     35.09    -27.97     20.00
   11.3958     35.97     35.14    -27.82     20.00
   11.4059     35.82     35.19    -28.01     20.00
   11.4161     35.85     35.23    -28.03     20.00
   11.4263     34.98     35.28    -28.94     20.00
   11.4364     35.94     35.32    -28.03     20.00
   11.4466     35.45     35.37    -28.57     20.00
   11.4568     35.79     35.42    -28.27     20.00
   11.4669     36.06     35.46    -28.05     20.00
   11.4771     36.29     35.51    -27.87     20.00
   11.4873     36.91     35.56    -27.29     20.00
   11.4974     37.14     35.61    -27.11     20.00
   11.5076     36.21     35.65    -28.09     20.00
   11.5177     36.07     35.70    -28.28     20.00
   11.5279     35.77     35.75    -28.62     20.00
   11.5381     36.51     35.80    -27.93     20.00
   11.5482     36.90     35.84    -27.59     20.00
   11.5584     37.07     35.89    -27.47     20.00
   11.5686     36.94     35.94    -27.65     20.00
   11.5787     36.46     35.99    -28.18     20.00
   11.5889     36.87     36.04    -27.82     20.00
   11.5991     36.63     36.09    -28.10     20.00
   11.6092     35.79     36.14    -28.99     20.00
   11.6194     37.23     36.19    -27.60     20.00
   11.6296     36.85     36.24    -28.03     20.00
   11.6397     36.21     36.29    -28.72     20.00
   11.6499     36.11     36.34    -28.87     20.00
   11.6600     36.50     36.39    -28.53     20.00
   11.6702     36.63     36.44    -28.45     20.00
   11.6804     36.40     36.49    -28.73     20.00
   11.6905     36.68     36.54    -28.51     20.00
   11.7007     37.30     36.59    -27.94     20.00
   11.7109     38.05     36.64    -27.24     20.00
   11.7210     36.45     36.69    -28.89     20.00
   11.7312     37.51     36.74    -27.88     20.00
   11.7414     38.66     36.80    -26.78     20.00
   11.7515     36.93     36.85    -28.56     20.00
   11.7617     37.94     36.90    -27.61     20.00
   11.7719     39.45     36.95    -26.15     20.00
   11.7820     37.18     37.01    -28.47     20.00
   11.7922     37.73     37.06    -27.97     20.00
   11.8023     37.29     37.11    -28.47     20.00
   11.8125     36.25     37.16    -29.56     20.00
   11.8227     36.88     37.22    -28.98     20.00
   11.8328     37.70     37.27    -28.22     20.00
   11.8430     37.68     37.33    -28.29     20.00
   11.8532     37.47     37.38    -28.56     20.00
   11.8633     38.86     37.43    -27.22     20.00
   11.8735     37.87     37.49    -28.26     20.00
   11.8837     38.18     37.54    -28.01     20.00
   11.8938     37.79     37.60    -28.45     20.00
   11.9040     36.70     37.65    -29.60     20.00
   11.9142     37.98     37.71    -28.37     20.00
   11.9243     38.56     37.76    -27.85     20.00
   11.9345     37.57     37.82    -28.89     20.00
   11.9447     37.84     37.87    -28.68     20.00
   11.9548     39.01     37.93    -27.57     20.00
   11.9650     37.77     37.99    -28.86     20.00
   11.9751     38.61     38.04    -28.08     20.00
   11.9853     38.18     38.10    -28.56     20.00
   11.9955     38.57     38.16    -28.23     20.00
   12.0056     38.65     38.21    -28.21     20.00
   12.0158     38.47     38.27    -28.45     20.00
   12.0260     39.17     38.33    -27.80     20.00
   12.0361     39.05     38.38    -27.98     20.00
   12.0463     38.93     38.44    -28.16     20.00
   12.0565     38.59     38.50    -28.56     20.00
   12.0666     37.74     38.56    -29.46     20.00
   12.0768     38.78     38.62    -28.48     20.00
   12.0870     38.71     38.68    -28.61     20.00
   12.0971     38.96     38.73    -28.42     20.00
   12.1073     38.64     38.79    -28.80     20.00
   12.1174     38.38     38.85    -29.12     20.00
   12.1276     39.87     38.91    -27.69     20.00
   12.1378     39.60     38.97    -28.02     20.00
   12.1479     39.25     39.03    -28.43     20.00
   12.1581     39.31     39.09    -28.43     20.00
   12.1683     39.00     39.15    -28.80     20.00
   12.1784     38.87     39.21    -28.99     20.00
   12.1886     39.02     39.27    -28.90     20.00
   12.1988     39.09     39.34    -28.89     20.00
   12.2089     39.45     39.40    -28.59     20.00
   12.2191     39.11     39.46    -28.99     20.00
   12.2293     39.96     39.52    -28.21     20.00
   12.2394     39.52     39.58    -28.71     20.00
   12.2496     39.61     39.64    -28.68     20.00
   12.2598     39.65     39.71    -28.70     20.00
   12.2699     39.35     39.77    -29.06     20.00
   12.2801     39.73     39.83    -28.75     20.00
   12.2902     39.68     39.89    -28.86     20.00
   12.3004     40.20     39.96    -28.40     20.00
   12.3106     39.54     40.02    -29.13     20.00
   12.3207     40.09     40.08    -28.64     20.00
   12.3309     38.96     40.15    -29.83     20.00
   12.3411     40.33     40.21    -28.53     20.00
   12.3512     40.03     40.28    -28.89     20.00
   12.3614     40.20     40.34    -28.79     20.00
   12.3716     41.35     40.41    -27.70     20.00
   12.3817     41.00     40.47    -28.12     20.00
   12.3919     39.78     40.54    -29.40     20.00
   12.4021     40.74     40.60    -28.51     20.00
   12.4122     40.59     40.67    -28.72     20.00
   12.4224     40.09     40.73    -29.29     20.00
   12.4325     41.27     40.80    -28.17     20.00
   12.4427     40.51     40.86    -29.00     20.00
   12.4529     40.63     40.93    -28.95     20.00
   12.4630     39.85     41.00    -29.79     20.00
   12.4732     41.34     41.06    -28.37     20.00
   12.4834     41.12     41.13    -28.66     20.00
   12.4935     40.40     41.20    -29.44     20.00
   12.5037     41.97     41.27    -27.94     20.00
   12.5139     41.52     41.33    -28.46     20.00
   12.5240     41.75     41.40    -28.30     20.00
   12.5342     41.32     41.47    -28.80     20.00
   12.5444     41.50     41.54    -28.69     20.00
   12.5545     41.14     41.61    -29.11     20.00
   12.5647     41.24     41.68    -29.08     20.00
   12.5749     40.13     41.75    -30.26     20.00
   12.5850     40.89     41.82    -29.57     20.00
   12.5952     41.60     41.89    -28.93     20.00
   12.6053     41.49     41.96    -29.11     20.00
   12.6155     40.87     42.03    -29.80     20.00
   12.6257     41.99     42.10    -28.75     20.00
   12.6358     41.40     42.17    -29.41     20.00
   12.6460     41.16     42.24    -29.72     20.00
   12.6562     42.01     42.31    -28.95     20.00
   12.6663     42.10     42.38    -28.93     20.00
   12.6765     41.42     42.45    -29.68     20.00
   12.6867     43.70     42.52    -27.47     20.00
   12.6968     41.72     42.60    -29.52     20.00
   12.7070     42.66     42.67    -28.66     20.00
   12.7172     42.62     42.74    -28.77     20.00
   12.7273     42.01     42.81    -29.45     20.00
   12.7375     42.48     42.89    -29.05     20.00
   12.7476     42.46     42.96    -29.15     20.00
   12.7578     42.93     43.03    -28.75     20.00
   12.7680     41.46     43.11    -30.29     20.00
   12.7781     43.31     43.18    -28.52     20.00
   12.7883     43.37     43.26    -28.53     20.00
   12.7985     42.40     43.33    -29.58     20.00
   12.8086     43.22     43.41    -28.83     20.00
   12.8188     43.40     43.48    -28.73     20.00
   12.8290     44.04     43.56    -28.16     20.00
   12.8391     43.10     43.63    -29.18     20.00
   12.8493     43.49     43.71    -28.86     20.00
   12.8595     42.32     43.78    -30.11     20.00
   12.8696     43.32     43.86    -29.19     20.00
   12.8798     43.69     43.94    -28.89     20.00
   12.8900     43.67     44.01    -28.99     20.00
   12.9001     43.15     44.09    -29.59     20.00
   12.9103     42.58     44.17    -30.23     20.00
   12.9204     43.78     44.24    -29.11     20.00
   12.9306     44.29     44.32    -28.68     20.00
   12.9408     43.92     44.40    -29.13     20.00
   12.9509     43.80     44.48    -29.32     20.00
   12.9611     43.80     44.56    -29.40     20.00
   12.9713     44.60     44.64    -28.68     20.00
   12.9814     43.63     44.71    -29.73     20.00
   12.9916     44.51     44.79    -28.93     20.00
   13.0018     44.67     44.87    -28.85     20.00
   13.0119     43.51     44.95    -30.09     20.00
   13.0221     44.77     45.03    -28.91     20.00
   13.0323     44.77     45.11    -28.99     20.00
   13.0424     43.86     45.19    -29.98     20.00
   13.0526     44.68     45.27    -29.24     20.00
   13.0627     43.47     45.36    -30.53     20.00
   13.0729     44.07     45.44    -30.01     20.00
   13.0831     43.52     45.52    -30.64     20.00
   13.0932     44.82     45.60    -29.43     20.00
   13.1034     43.40     45.68    -30.93     20.00
   13.1136     44.41     45.76    -30.00     20.00
   13.1237     44.93     45.85    -29.56     20.00
   13.1339     44.13     45.93    -30.45     20.00
   13.1441     44.52     46.01    -30.14     20.00
   13.1542     45.38     46.10    -29.36     20.00
   13.1644     45.54     46.18    -29.29     20.00
   13.1746     45.23     46.26    -29.68     20.00
   13.1847     45.34     46.35    -29.65     20.00
   13.1949     45.04     46.43    -30.04     20.00
   13.2051     45.46     46.52    -29.70     20.00
   13.2152     44.98     46.60    -30.27     20.00
   13.2254     45.16     46.69    -30.17     20.00
   13.2355     46.57     46.77    -28.85     20.00
   13.2457     44.65     46.86    -30.85     20.00
   13.2559     46.25     46.94    -29.34     20.00
   13.2660     46.03     47.03    -29.64     20.00
   13.2762     44.71     47.11    -31.05     20.00
   13.2864     46.41     47.20    -29.44     20.00
   13.2965     45.90     47.29    -30.03     20.00
   13.3067     45.93     47.38    -30.09     20.00
   13.3169     47.30     47.46    -28.81     20.00
   13.3270     46.10     47.55    -30.10     20.00
   13.3372     46.41     47.64    -29.87     20.00
   13.3474     46.79     47.73    -29.58     20.00
   13.3575     45.45     47.82    -31.01     20.00
   13.3677     47.14     47.90    -29.41     20.00
   13.3778     46.33     47.99    -30.31     20.00
   13.3880     46.98     48.08    -29.75     20.00
   13.3982     47.68     48.17    -29.14     20.00
   13.4083     47.75     48.26    -29.16     20.00
   13.4185     47.28     48.35    -29.72     20.00
   13.4287     46.73     48.44    -30.36     20.00
   13.4388     47.46     48.53    -29.72     20.00
   13.4490     48.37     48.62    -28.90     20.00
   13.4592     48.26     48.71    -29.10     20.00
   13.4693     48.26     48.81    -29.19     20.00
   13.4795     47.29     48.90    -30.25     20.00
   13.4897     47.16     48.99    -30.48     20.00
   13.4998     47.75     49.08    -29.98     20.00
   13.5100     47.97     49.17    -29.85     20.00
   13.5201     48.13     49.27    -29.78     20.00
   13.5303     48.14     49.36    -29.87     20.00
   13.5405     47.73     49.45    -30.37     20.00
   13.5506     48.46     49.55    -29.73     20.00
   13.5608     48.26     49.64    -30.03     20.00
   13.5710     48.51     49.73    -29.87     20.00
   13.5811     48.74     49.83    -29.73     20.00
   13.5913     49.08     49.92    -29.49     20.00
   13.6015     48.04     50.02    -30.62     20.00
   13.6116     49.60     50.11    -29.16     20.00
   13.6218     49.10     50.21    -29.75     20.00
   13.6320     49.74     50.30    -29.21     20.00
   13.6421     49.44     50.40    -29.61     20.00
   13.6523     50.19     50.50    -28.95     20.00
   13.6625     49.65     50.59    -29.59     20.00
   13.6726     50.10     50.69    -29.23     20.00
   13.6828     49.21     50.79    -30.22     20.00
   13.6929     49.58     50.88    -29.95     20.00
   13.7031     50.67     50.98    -28.96     20.00
   13.7133     50.34     51.08    -29.38     20.00
   13.7234     49.52     51.18    -30.30     20.00
   13.7336     49.37     51.27    -30.55     20.00
   13.7438     48.98     51.37    -31.04     20.00
   13.7539     49.88     51.47    -30.24     20.00
   13.7641     51.31     51.57    -28.91     20.00
   13.7743     50.55     51.67    -29.77     20.00
   13.7844     50.60     51.77    -29.82     20.00
   13.7946     51.34     51.87    -29.18     20.00
   13.8048     51.63     51.97    -28.99     20.00
   13.8149     51.42     52.07    -29.30     20.00
   13.8251     51.89     52.17    -28.93     20.00
   13.8352     51.41     52.27    -29.51     20.00
   13.8454     49.60     52.37    -31.42     20.00
   13.8556     52.29     52.48    -28.83     20.00
   13.8657     51.01     52.58    -30.21     20.00
   13.8759     51.21     52.68    -30.12     20.00
   13.8861     51.29     52.78    -30.14     20.00
   13.8962     51.51     52.88    -30.02     20.00
   13.9064     51.79     52.99    -29.84     20.00
   13.9166     51.56     53.09    -30.18     20.00
   13.9267     50.63     53.19    -31.21     20.00
   13.9369     51.70     53.30    -30.24     20.00
   13.9471     52.20     53.40    -29.85     20.00
   13.9572     52.39     53.51    -29.76     20.00
   13.9674     52.21     53.61    -30.05     20.00
   13.9776     51.58     53.72    -30.78     20.00
   13.9877     51.99     53.82    -30.48     20.00
   13.9979     52.27     53.93    -30.30     20.00
   14.0080     52.95     54.03    -29.73     20.00
   14.0182     53.95     54.14    -28.83     20.00
   14.0284     52.60     54.24    -30.29     20.00
   14.0385     53.62     54.35    -29.38     20.00
   14.0487     53.84     54.46    -29.26     20.00
   14.0589     53.07     54.57    -30.14     20.00
   14.0690     52.85     54.67    -30.47     20.00
   14.0792     53.33     54.78    -30.10     20.00
   14.0894     53.58     54.89    -29.95     20.00
   14.0995     54.91     55.00    -28.73     20.00
   14.1097     54.30     55.10    -29.45     20.00
   14.1199     54.10     55.21    -29.76     20.00
   14.1300     52.88     55.32    -31.09     20.00
   14.1402     52.52     55.43    -31.56     20.00
   14.1503     53.40     55.54    -30.79     20.00
   14.1605     55.28     55.65    -29.02     20.00
   14.1707     54.87     55.76    -29.54     20.00
   14.1808     54.62     55.87    -29.90     20.00
   14.1910     55.96     55.98    -28.67     20.00
   14.2012     55.26     56.09    -29.48     20.00
   14.2113     55.30     56.20    -29.55     20.00
   14.2215     55.82     56.31    -29.14     20.00
   14.2317     55.01     56.43    -30.06     20.00
   14.2418     55.21     56.54    -29.97     20.00
   14.2520     54.95     56.65    -30.35     20.00
   14.2622     54.43     56.76    -30.98     20.00
   14.2723     57.09     56.88    -28.43     20.00
   14.2825     55.96     56.99    -29.68     20.00
   14.2927     55.60     57.10    -30.15     20.00
   14.3028     55.40     57.22    -30.46     20.00
   14.3130     56.24     57.33    -29.74     20.00
   14.3231     55.57     57.44    -30.52     20.00
   14.3333     55.90     57.56    -30.30     20.00
   14.3435     56.54     57.67    -29.78     20.00
   14.3536     56.34     57.79    -30.09     20.00
   14.3638     56.37     57.90    -30.18     20.00
   14.3740     56.51     58.02    -30.16     20.00
   14.3841     56.49     58.13    -30.29     20.00
   14.3943     57.48     58.25    -29.42     20.00
   14.4045     56.14     58.37    -30.87     20.00
   14.4146     56.20     58.48    -30.93     20.00
   14.4248     56.21     58.60    -31.04     20.00
   14.4350     56.88     58.72    -30.48     20.00
   14.4451     57.87     58.84    -29.61     20.00
   14.4553     57.71     58.95    -29.89     20.00
   14.4654     56.74     59.07    -30.98     20.00
   14.4756     57.82     59.19    -30.02     20.00
   14.4858     58.12     59.31    -29.83     20.00
   14.4959     58.37     59.43    -29.70     20.00
   14.5061     57.68     59.55    -30.51     20.00
   14.5163     58.26     59.67    -30.05     20.00
   14.5264     57.80     59.78    -30.63     20.00
   14.5366     57.86     59.91    -30.69     20.00
   14.5468     59.49     60.03    -29.18     20.00
   14.5569     58.49     60.15    -30.30     20.00
   14.5671     58.51     60.27    -30.40     20.00
   14.5773     58.70     60.39    -30.33     20.00
   14.5874     58.71     60.51    -30.44     20.00
   14.5976     59.01     60.63    -30.27     20.00
   14.6078     59.04     60.75    -30.36     20.00
   14.6179     60.25     60.87    -29.27     20.00
   14.6281     58.59     61.00    -31.05     20.00
   14.6382     59.23     61.12    -30.53     20.00
   14.6484     59.84     61.24    -30.05     20.00
   14.6586     59.07     61.37    -30.94     20.00
   14.6687     58.98     61.49    -31.15     20.00
   14.6789     60.14     61.61    -30.12     20.00
   14.6891     60.20     61.74    -30.18     20.00
   14.6992     59.91     61.86    -30.60     20.00
   14.7094     60.75     61.99    -29.88     20.00
   14.7196     60.77     62.11    -29.99     20.00
   14.7297     60.46     62.23    -30.42     20.00
   14.7399     59.94     62.36    -31.07     20.00
   14.7501     60.61     62.49    -30.52     20.00
   14.7602     61.02     62.61    -30.24     20.00
   14.7704     61.09     62.74    -30.29     20.00
   14.7805     60.70     62.86    -30.81     20.00
   14.7907     60.68     62.99    -30.96     20.00
   14.8009     61.49     63.12    -30.27     20.00
   14.8110     61.23     63.24    -30.66     20.00
   14.8212     60.51     63.37    -31.51     20.00
   14.8314     63.83     63.50    -28.32     20.00
   14.8415     61.68     63.63    -30.59     20.00
   14.8517     62.93     63.76    -29.47     20.00
   14.8619     61.87     63.89    -30.66     20.00
   14.8720     62.77     64.01    -29.89     20.00
   14.8822     62.40     64.14    -30.39     20.00
   14.8924     63.04     64.27    -29.88     20.00
   14.9025     62.90     64.40    -30.15     20.00
   14.9127     62.76     64.53    -30.42     20.00
   14.9229     62.73     64.66    -30.58     20.00
   14.9330     63.65     64.79    -29.79     20.00
   14.9432     63.37     64.92    -30.20     20.00
   14.9533     63.71     65.05    -29.99     20.00
   14.9635     64.10     65.19    -29.73     20.00
   14.9737     63.01     65.32    -30.95     20.00
   14.9838     63.23     65.45    -30.86     20.00
   14.9940     64.07     65.58    -30.16     20.00
   15.0042     62.74     65.71    -31.62     20.00
   15.0143     63.94     65.84    -30.55     20.00
   15.0245     66.07     65.98    -28.55     20.00
   15.0347     64.14     66.11    -30.62     20.00
   15.0448     65.34     66.24    -29.55     20.00
   15.0550     65.65     66.38    -29.37     20.00
   15.0652     64.74     66.51    -30.42     20.00
   15.0753     66.45     66.65    -28.84     20.00
   15.0855     65.93     66.78    -29.50     20.00
   15.0956     65.45     66.91    -30.11     20.00
   15.1058     65.12     67.05    -30.58     20.00
   15.1160     66.69     67.18    -29.14     20.00
   15.1261     65.16     67.32    -30.81     20.00
   15.1363     66.48     67.46    -29.62     20.00
   15.1465     66.59     67.59    -29.65     20.00
   15.1566     66.51     67.73    -29.86     20.00
   15.1668     66.77     67.86    -29.74     20.00
   15.1770     66.69     68.00    -29.96     20.00
   15.1871     66.72     68.14    -30.06     20.00
   15.1973     66.49     68.27    -30.43     20.00
   15.2075     67.79     68.41    -29.27     20.00
   15.2176     68.47     68.55    -28.73     20.00
   15.2278     68.12     68.69    -29.21     20.00
   15.2380     68.52     68.83    -28.95     20.00
   15.2481     67.37     68.96    -30.24     20.00
   15.2583     68.43     69.10    -29.32     20.00
   15.2684     67.62     69.24    -30.27     20.00
   15.2786     68.28     69.38    -29.75     20.00
   15.2888     67.13     69.52    -31.04     20.00
   15.2989     68.11     69.66    -30.20     20.00
   15.3091     68.94     69.80    -29.51     20.00
   15.3193     69.51     69.94    -29.08     20.00
   15.3294     69.30     70.08    -29.43     20.00
   15.3396     70.70     70.22    -28.17     20.00
   15.3498     69.07     70.36    -29.94     20.00
   15.3599     69.00     70.50    -30.15     20.00
   15.3701     69.96     70.65    -29.33     20.00
   15.3803     69.95     70.79    -29.48     20.00
   15.3904     70.88     70.93    -28.70     20.00
   15.4006     69.63     71.07    -30.09     20.00
   15.4107     70.99     71.21    -28.87     20.00
   15.4209     71.05     71.36    -28.95     20.00
   15.4311     71.47     71.50    -28.68     20.00
   15.4412     70.97     71.64    -29.32     20.00
   15.4514     69.88     71.79    -30.55     20.00
   15.4616     71.27     71.93    -29.31     20.00
   15.4717     71.18     72.07    -29.54     20.00
   15.4819     70.18     72.22    -30.69     20.00
   15.4921     71.75     72.36    -29.26     20.00
   15.5022     70.96     72.51    -30.19     20.00
   15.5124     71.58     72.65    -29.72     20.00
   15.5226     72.57     72.80    -28.88     20.00
   15.5327     73.04     72.94    -28.55     20.00
   15.5429     71.86     73.09    -29.88     20.00
   15.5530     71.39     73.24    -30.49     20.00
   15.5632     72.41     73.38    -29.62     20.00
   15.5734     71.77     73.53    -30.41     20.00
   15.5835     72.95     73.68    -29.37     20.00
   15.5937     73.56     73.82    -28.91     20.00
   15.6039     73.49     73.97    -29.13     20.00
   15.6140     73.63     74.12    -29.13     20.00
   15.6242     73.39     74.27    -29.52     20.00
   15.6344     73.15     74.41    -29.91     20.00
   15.6445     74.39     74.56    -28.82     20.00
   15.6547     75.62     74.71    -27.74     20.00
   15.6649     74.55     74.86    -28.96     20.00
   15.6750     73.07     75.01    -30.58     20.00
   15.6852     75.18     75.16    -28.62     20.00
   15.6954     75.38     75.31    -28.57     20.00
   15.7055     75.29     75.46    -28.81     20.00
   15.7157     74.63     75.61    -29.62     20.00
   15.7258     74.49     75.76    -29.91     20.00
   15.7360     75.88     75.91    -28.67     20.00
   15.7462     74.91     76.06    -29.79     20.00
   15.7563     75.31     76.21    -29.54     20.00
   15.7665     74.29     76.36    -30.72     20.00
   15.7767     76.43     76.51    -28.73     20.00
   15.7868     75.11     76.66    -30.20     20.00
   15.7970     76.18     76.81    -29.28     20.00
   15.8072     76.76     76.97    -28.85     20.00
   15.8173     75.87     77.12    -29.89     20.00
   15.8275     76.61     77.27    -29.31     20.00
   15.8377     76.01     77.43    -30.06     20.00
   15.8478     77.90     77.58    -28.32     20.00
   15.8580     77.38     77.73    -29.00     20.00
   15.8681     76.99     77.88    -29.54     20.00
   15.8783     75.74     78.04    -30.94     20.00
   15.8885     78.52     78.19    -28.32     20.00
   15.8986     78.17     78.35    -28.82     20.00
   15.9088     78.82     78.50    -28.33     20.00
   15.9190     78.65     78.66    -28.65     20.00
   15.9291     78.52     78.81    -28.94     20.00
   15.9393     78.58     78.97    -29.03     20.00
   15.9495     79.86     79.12    -27.91     20.00
   15.9596     79.20     79.28    -28.72     20.00
   15.9698     78.52     79.43    -29.56     20.00
   15.9800     79.74     79.59    -28.50     20.00
   15.9901     79.62     79.75    -28.77     20.00
   16.0003     79.73     79.90    -28.82     20.00
   16.0105     78.93     80.06    -29.78     20.00
   16.0206     80.85     80.22    -28.01     20.00
   16.0308     80.46     80.38    -28.56     20.00
   16.0409     80.33     80.53    -28.85     20.00
   16.0511     80.58     80.69    -28.76     20.00
   16.0613     80.49     80.85    -29.01     20.00
   16.0714     79.73     81.01    -29.92     20.00
   16.0816     81.37     81.17    -28.44     20.00
   16.0918     81.48     81.33    -28.49     20.00
   16.1019     82.38     81.48    -27.75     20.00
   16.1121     80.91     81.64    -29.38     20.00
   16.1223     81.30     81.81    -29.15     20.00
   16.1324     81.23     81.96    -29.38     20.00
   16.1426     81.40     82.13    -29.37     20.00
   16.1528     82.39     82.29    -28.54     20.00
   16.1629     83.09     82.45    -28.00     20.00
   16.1731     83.69     82.61    -27.56     20.00
   16.1832     83.09     82.77    -28.32     20.00
   16.1934     83.90     82.93    -27.68     20.00
   16.2036     82.79     83.09    -28.95     20.00
   16.2137     83.11     83.25    -28.79     20.00
   16.2239     83.74     83.42    -28.32     20.00
   16.2341     84.11     83.58    -28.12     20.00
   16.2442     84.51     83.74    -27.88     20.00
   16.2544     85.18     83.91    -27.37     20.00
   16.2646     84.36     84.07    -28.36     20.00
   16.2747     85.03     84.23    -27.85     20.00
   16.2849     85.93     84.40    -27.11     20.00
   16.2951     86.63     84.56    -26.58     20.00
   16.3052     85.67     84.72    -27.70     20.00
   16.3154     84.53     84.89    -29.01     20.00
   16.3256     87.10     85.06    -26.60     20.00
   16.3357     84.46     85.22    -29.41     20.00
   16.3459     85.03     85.39    -29.00     20.00
   16.3560     86.68     85.55    -27.52     20.00
   16.3662     85.99     85.72    -28.37     20.00
   16.3764     87.21     85.88    -27.32     20.00
   16.3865     87.92     86.05    -26.78     20.00
   16.3967     87.67     86.22    -27.19     20.00
   16.4069     86.45     86.39    -28.58     20.00
   16.4170     88.14     86.55    -27.06     20.00
   16.4272     87.96     86.72    -27.41     20.00
   16.4374     88.13     86.89    -27.41     20.00
   16.4475     87.95     87.06    -27.75     20.00
   16.4577     88.78     87.23    -27.09     20.00
   16.4679     88.63     87.40    -27.41     20.00
   16.4780     89.95     87.56    -26.26     20.00
   16.4882     89.53     87.73    -26.85     20.00
   16.4983     90.29     87.90    -26.26     20.00
   16.5085     90.35     88.07    -26.37     20.00
   16.5187     89.88     88.25    -27.01     20.00
   16.5288     91.33     88.41    -25.73     20.00
   16.5390     91.25     88.59    -25.98     20.00
   16.5492     89.51     88.76    -27.90     20.00
   16.5593     91.69     88.93    -25.89     20.00
   16.5695     91.00     89.10    -26.75     20.00
   16.5797     90.45     89.28    -27.47     20.00
   16.5898     91.35     89.45    -26.74     20.00
   16.6000     92.73     89.62    -25.54     20.00
   16.6102     90.66     89.80    -27.78     20.00
   16.6203     92.59     89.97    -26.03     20.00
   16.6305     90.21     90.14    -28.58     20.00
   16.6407     94.15     90.32    -24.82     20.00
   16.6508     93.74     90.49    -25.40     20.00
   16.6610     94.63     90.67    -24.69     20.00
   16.6711     94.51     90.84    -24.98     20.00
   16.6813     94.38     91.02    -25.29     20.00
   16.6915     93.82     91.20    -26.02     20.00
   16.7016     92.40     91.37    -27.62     20.00
   16.7118     94.55     91.55    -25.65     20.00
   16.7220     96.87     91.73    -23.51     20.00
   16.7321     96.21     91.91    -24.34     20.00
   16.7423     94.96     92.09    -25.77     20.00
   16.7525     96.09     92.27    -24.82     20.00
   16.7626     95.73     92.45    -25.36     20.00
   16.7728     96.05     92.63    -25.22     20.00
   16.7830     95.93     92.81    -25.52     20.00
   16.7931     97.23     92.99    -24.40     20.00
   16.8033     96.02     93.17    -25.80     20.00
   16.8134     96.59     93.35    -25.41     20.00
   16.8236     97.32     93.53    -24.86     20.00
   16.8338     97.54     93.72    -24.82     20.00
   16.8439     96.93     93.90    -25.62     20.00
   16.8541     97.70     94.08    -25.03     20.00
   16.8643     96.91     94.27    -26.00     20.00
   16.8744     99.66     94.45    -23.44     20.00
   16.8846     99.07     94.64    -24.21     20.00
   16.8948     99.37     94.83    -24.10     20.00
   16.9049     98.48     95.01    -25.18     20.00
   16.9151     99.37     95.20    -24.48     20.00
   16.9253     97.20     95.39    -26.83     20.00
   16.9354     99.11     95.57    -25.11     20.00
   16.9456     98.63     95.76    -25.78     20.00
   16.9558    100.73     95.95    -23.87     20.00
   16.9659    100.74     96.14    -24.05     20.00
   16.9761     99.88     96.34    -25.10     20.00
   16.9862     97.40     96.53    -27.77     20.00
   16.9964    101.32     96.72    -24.05     20.00
   17.0066    100.49     96.91    -25.07     20.00
   17.0167     99.66     97.11    -26.09     20.00
   17.0269    100.88     97.30    -25.07     20.00
   17.0371    100.07     97.50    -26.07     20.00
   17.0472    101.38     97.69    -24.96     20.00
   17.0574     99.87     97.89    -26.66     20.00
   17.0676    101.55     98.09    -25.18     20.00
   17.0777    102.66     98.28    -24.27     20.00
   17.0879    101.67     98.48    -25.46     20.00
   17.0981    102.65     98.68    -24.68     20.00
   17.1082    101.97     98.88    -25.56     20.00
   17.1184    102.89     99.09    -24.84     20.00
   17.1285    103.70     99.29    -24.24     20.00
   17.1387    104.12     99.49    -24.02     20.00
   17.1489    103.05     99.70    -25.30     20.00
   17.1590    101.66     99.90    -26.89     20.00
   17.1692    104.27    100.11    -24.49     20.00
   17.1794    104.18    100.32    -24.79     20.00
   17.1895    104.05    100.53    -25.12     20.00
   17.1997    101.81    100.74    -27.58     20.00
   17.2099    103.35    100.95    -26.25     20.00
   17.2200    104.21    101.16    -25.60     20.00
   17.2302    105.54    101.38    -24.48     20.00
   17.2404    107.30    101.59    -22.94     20.00
   17.2505    103.54    101.81    -26.92     20.00
   17.2607    104.55    102.03    -26.12     20.00
   17.2709    104.90    102.25    -25.99     20.00
   17.2810    105.07    102.47    -26.04     20.00
   17.2912    104.14    102.69    -27.20     20.00
   17.3013    107.36    102.91    -24.20     20.00
   17.3115    105.07    103.14    -26.72     20.00
   17.3217    104.76    103.37    -27.25     20.00
   17.3318    107.62    103.60    -24.62     20.00
   17.3420    106.69    103.83    -25.78     20.00
   17.3522    106.74    104.06    -25.97     20.00
   17.3623    107.40    104.30    -25.54     20.00
   17.3725    107.36    104.53    -25.82     20.00
   17.3827    110.15    104.77    -23.27     20.00
   17.3928    109.34    105.01    -24.32     20.00
   17.4030    107.98    105.26    -25.93     20.00
   17.4132    108.78    105.51    -25.37     20.00
   17.4233    108.05    105.76    -26.35     20.00
   17.4335    109.18    106.01    -25.47     20.00
   17.4436    108.98    106.26    -25.93     20.00
   17.4538    110.16    106.52    -25.01     20.00
   17.4640    110.39    106.78    -25.04     20.00
   17.4741    110.90    107.05    -24.79     20.00
   17.4843    111.66    107.32    -24.30     20.00
   17.4945    111.06    107.59    -25.17     20.00
   17.5046    112.37    107.86    -24.14     20.00
   17.5148    112.27    108.14    -24.52     20.00
   17.5250    112.74    108.43    -24.34     20.00
   17.5351    110.33    108.72    -27.03     20.00
   17.5453    112.95    109.01    -24.71     20.00
   17.5555    112.59    109.31    -25.37     20.00
   17.5656    112.42    109.62    -25.84     20.00
   17.5758    113.59    109.93    -24.98     20.00
   17.5859    113.26    110.24    -25.63     20.00
   17.5961    113.82    110.57    -25.39     20.00
   17.6063    114.10    110.90    -25.45     20.00
   17.6164    113.92    111.24    -25.96     20.00
   17.6266    114.97    111.58    -25.26     20.00
   17.6368    115.73    111.94    -24.86     20.00
   17.6469    115.72    112.30    -25.23     20.00
   17.6571    117.44    112.67    -23.88     20.00
   17.6673    118.71    113.06    -22.99     20.00
   17.6774    118.11    113.45    -23.99     20.00
   17.6876    118.18    113.86    -24.32     20.00
   17.6978    120.09    114.27    -22.83     20.00
   17.7079    119.13    114.70    -24.22     20.00
   17.7181    119.07    115.14    -24.72     20.00
   17.7283    118.91    115.60    -25.34     20.00
   17.7384    120.46    116.07    -24.26     20.00
   17.7486    119.89    116.56    -25.32     20.00
   17.7587    121.52    117.06    -24.19     20.00
   17.7689    122.96    117.59    -23.27     20.00
   17.7791    121.66    118.13    -25.11     20.00
   17.7892    122.24    118.69    -25.09     20.00
   17.7994    124.16    119.27    -23.75     20.00
   17.8096    122.97    119.87    -25.55     20.00
   17.8197    124.68    120.50    -24.46     20.00
   17.8299    126.53    121.15    -23.26     20.00
   17.8401    127.47    121.82    -23.00     20.00
   17.8502    126.27    122.52    -24.90     20.00
   17.8604    128.32    123.25    -23.58     20.00
   17.8706    128.82    124.02    -23.84     20.00
   17.8807    129.27    124.80    -24.18     20.00
   17.8909    128.79    125.62    -25.48     20.00
   17.9010    132.51    126.47    -22.61     20.00
   17.9112    132.82    127.36    -23.19     20.00
   17.9214    132.07    128.29    -24.87     20.00
   17.9315    133.94    129.25    -23.95     20.00
   17.9417    135.18    130.25    -23.72     20.00
   17.9519    135.05    131.30    -24.89     20.00
   17.9620    135.61    132.37    -25.41     20.00
   17.9722    137.03    133.50    -25.12     20.00
   17.9824    139.01    134.68    -24.31     20.00
   17.9925    138.43    135.89    -26.10     20.00
   18.0027    142.05    137.15    -23.75     20.00
   18.0129    142.10    138.47    -25.02     20.00
   18.0230    140.48    139.83    -27.99     20.00
   18.0332    143.96    141.24    -25.93     20.00
   18.0434    145.37    142.71    -25.99     20.00
   18.0535    144.72    144.22    -28.15     20.00
   18.0637    147.22    145.80    -27.23     20.00
   18.0738    150.28    147.42    -25.79     20.00
   18.0840    150.50    149.11    -27.26     20.00
   18.0942    152.34    150.86    -27.17     20.00
   18.1043    153.07    152.65    -28.23     20.00
   18.1145    154.85    154.52    -28.31     20.00
   18.1247    158.09    156.44    -27.00     20.00
   18.1348    158.26    158.41    -28.79     20.00
   18.1450    159.82    160.45    -29.28     20.00
   18.1552    161.68    162.55    -29.52     20.00
   18.1653    164.68    164.70    -28.66     20.00
   18.1755    167.41    166.92    -28.15     20.00
   18.1857    169.10    169.20    -28.74     20.00
   18.1958    168.71    171.51    -31.45     20.00
   18.2060    171.52    173.91    -31.03     20.00
   18.2161    176.59    176.34    -28.39     20.00
   18.2263    175.23    178.84    -32.26     20.00
   18.2365    176.85    181.40    -33.20     20.00
   18.2466    180.59    183.99    -32.04     20.00
   18.2568    181.42    186.65    -33.87     20.00
   18.2670    184.13    189.36    -33.87     20.00
   18.2771    188.41    192.08    -32.32     20.00
   18.2873    190.55    194.87    -32.97     20.00
   18.2975    188.76    197.70    -37.59     20.00
   18.3076    197.99    200.54    -31.20     20.00
   18.3178    199.32    203.44    -32.76     20.00
   18.3280    200.01    206.36    -35.00     20.00
   18.3381    204.96    209.27    -32.96     20.00
   18.3483    209.83    212.23    -31.05     20.00
   18.3585    207.96    215.20    -35.89     20.00
   18.3686    214.47    218.15    -32.33     20.00
   18.3788    216.57    221.12    -33.20     20.00
   18.3889    215.20    224.06    -37.50     20.00
   18.3991    223.35    227.00    -32.30     20.00
   18.4093    227.55    229.93    -31.02     20.00
   18.4194    228.77    232.79    -32.67     20.00
   18.4296    233.62    235.64    -30.66     20.00
   18.4398    232.80    238.44    -34.28     20.00
   18.4499    236.65    241.15    -33.14     20.00
   18.4601    243.23    243.81    -29.23     20.00
   18.4703    244.29    246.39    -30.75     20.00
   18.4804    245.93    248.86    -31.58     20.00
   18.4906    249.74    251.25    -30.16     20.00
   18.5008    255.41    253.52    -26.76     20.00
   18.5109    254.66    255.65    -29.64     20.00
   18.5211    257.57    257.66    -28.74     20.00
   18.5312    257.83    259.51    -30.33     20.00
   18.5414    259.80    261.22    -30.07     20.00
   18.5516    267.07    262.77    -24.34     20.00
   18.5617    262.15    264.12    -30.62     20.00
   18.5719    264.04    265.30    -29.91     20.00
   18.5821    268.55    266.30    -26.39     20.00
   18.5922    267.31    267.08    -28.42     20.00
   18.6024    269.02    267.68    -27.31     20.00
   18.6126    271.56    268.07    -25.15     20.00
   18.6227    273.19    268.25    -23.70     20.00
   18.6329    269.70    268.22    -27.17     20.00
   18.6431    271.76    267.99    -24.88     20.00
   18.6532    271.67    267.56    -24.53     20.00
   18.6634    267.33    266.92    -28.24     20.00
   18.6736    269.94    266.09    -24.79     20.00
   18.6837    270.63    265.07    -23.09     20.00
   18.6939    268.20    263.86    -24.31     20.00
   18.7040    266.32    262.49    -24.82     20.00
   18.7142    264.48    260.95    -25.11     20.00
   18.7244    263.81    259.24    -24.08     20.00
   18.7345    261.12    257.41    -24.94     20.00
   18.7447    259.95    255.43    -24.12     20.00
   18.7549    256.12    253.32    -25.84     20.00
   18.7650    256.72    251.11    -23.04     20.00
   18.7752    254.52    248.79    -22.92     20.00
   18.7854    249.21    246.37    -25.81     20.00
   18.7955    249.04    243.90    -23.51     20.00
   18.8057    244.94    241.33    -25.04     20.00
   18.8159    240.17    238.71    -27.18     20.00
   18.8260    236.44    236.05    -28.26     20.00
   18.8362    234.42    233.34    -27.56     20.00
   18.8463    230.78    230.61    -28.48     20.00
   18.8565    228.88    227.84    -27.60     20.00
   18.8667    229.03    225.05    -24.66     20.00
   18.8768    220.71    222.28    -30.21     20.00
   18.8870    218.75    219.48    -29.37     20.00
   18.8972    214.10    216.68    -31.23     20.00
   18.9073    212.70    213.92    -29.87     20.00
   18.9175    210.97    211.16    -28.83     20.00
   18.9277    207.16    208.41    -29.90     20.00
   18.9378    203.63    205.72    -30.73     20.00
   18.9480    201.64    203.03    -30.04     20.00
   18.9582    200.29    200.38    -28.73     20.00
   18.9683    194.48    197.79    -31.95     20.00
   18.9785    193.45    195.21    -30.41     20.00
   18.9887    191.67    192.68    -29.66     20.00
   18.9988    185.47    190.22    -33.40     20.00
   19.0090    185.16    187.79    -31.28     20.00
   19.0191    182.55    185.43    -31.53     20.00
   19.0293    180.02    183.10    -31.73     20.00
   19.0395    179.24    180.83    -30.24     20.00
   19.0496    177.99    178.63    -29.29     20.00
   19.0598    173.99    176.47    -31.13     20.00
   19.0700    173.09    174.37    -29.93     20.00
   19.0801    168.77    172.35    -32.22     20.00
   19.0903    167.97    170.36    -31.04     20.00
   19.1005    167.70    168.43    -29.38     20.00
   19.1106    165.17    166.59    -30.06     20.00
   19.1208    162.29    164.78    -31.14     20.00
   19.1310    162.02    163.03    -29.66     20.00
   19.1411    159.83    161.36    -30.18     20.00
   19.1513    158.74    159.73    -29.64     20.00
   19.1614    155.60    158.17    -31.22     20.00
   19.1716    153.85    156.66    -31.46     20.00
   19.1818    155.60    155.20    -28.25     20.00
   19.1919    152.85    153.81    -29.61     20.00
   19.2021    152.04    152.46    -29.07     20.00
   19.2123    149.73    151.17    -30.08     20.00
   19.2224    148.62    149.94    -29.96     20.00
   19.2326    145.51    148.75    -31.88     20.00
   19.2428    145.88    147.60    -30.37     20.00
   19.2529    144.81    146.52    -30.36     20.00
   19.2631    146.70    145.48    -27.42     20.00
   19.2733    142.13    144.48    -30.99     20.00
   19.2834    143.83    143.53    -28.35     20.00
   19.2936    141.46    142.62    -29.80     20.00
   19.3038    139.91    141.75    -30.48     20.00
   19.3139    140.63    140.92    -28.94     20.00
   19.3241    138.42    140.13    -30.36     20.00
   19.3342    139.13    139.38    -28.90     20.00
   19.3444    137.45    138.67    -29.86     20.00
   19.3546    137.04    137.98    -29.59     20.00
   19.3647    135.56    137.34    -30.42     20.00
   19.3749    135.43    136.72    -29.94     20.00
   19.3851    136.85    136.13    -27.93     20.00
   19.3952    134.57    135.58    -29.65     20.00
   19.4054    133.70    135.05    -29.99     20.00
   19.4156    134.14    134.54    -29.05     20.00
   19.4257    131.68    134.07    -31.03     20.00
   19.4359    132.80    133.61    -29.46     20.00
   19.4461    132.10    133.18    -29.72     20.00
   19.4562    130.68    132.77    -30.74     20.00
   19.4664    131.94    132.38    -29.09     20.00
   19.4765    131.61    132.02    -29.05     20.00
   19.4867    129.05    131.66    -31.26     20.00
   19.4969    128.67    131.33    -31.31     20.00
   19.5070    127.31    131.02    -32.35     20.00
   19.5172    128.57    130.72    -30.79     20.00
   19.5274    129.66    130.43    -29.42     20.00
   19.5375    128.46    130.17    -30.35     20.00
   19.5477    129.29    129.91    -29.26     20.00
   19.5579    128.28    129.66    -30.03     20.00
   19.5680    126.65    129.44    -31.43     20.00
   19.5782    126.90    129.22    -30.96     20.00
   19.5884    127.41    129.01    -30.24     20.00
   19.5985    128.27    128.81    -29.19     20.00
   19.6087    126.43    128.63    -30.84     20.00
   19.6188    125.84    128.45    -31.26     20.00
   19.6290    128.37    128.28    -28.56     20.00
   19.6392    126.51    128.12    -30.26     20.00
   19.6493    127.06    127.97    -29.56     20.00
   19.6595    125.85    127.83    -30.63     20.00
   19.6697    124.63    127.69    -31.71     20.00
   19.6798    124.46    127.57    -31.75     20.00
   19.6900    125.79    127.45    -30.30     20.00
   19.7002    125.58    127.34    -30.40     20.00
   19.7103    124.20    127.23    -31.68     20.00
   19.7205    126.27    127.13    -29.51     20.00
   19.7307    124.46    127.04    -31.23     20.00
   19.7408    123.82    126.96    -31.78     20.00
   19.7510    125.83    126.88    -29.69     20.00
   19.7612    125.32    126.81    -30.13     20.00
   19.7713    125.43    126.74    -29.96     20.00
   19.7815    123.40    126.68    -31.93     20.00
   19.7916    123.87    126.63    -31.41     20.00
   19.8018    123.64    126.59    -31.59     20.00
   19.8120    126.41    126.55    -28.79     20.00
   19.8221    124.04    126.52    -31.12     20.00
   19.8323    124.91    126.50    -30.23     20.00
   19.8425    123.88    126.48    -31.24     20.00
   19.8526    124.74    126.47    -30.38     20.00
   19.8628    126.41    126.47    -28.71     20.00
   19.8730    125.88    126.48    -29.24     20.00
   19.8831    125.23    126.49    -29.91     20.00
   19.8933    126.05    126.51    -29.11     20.00
   19.9035    127.14    126.55    -28.05     20.00
   19.9136    125.60    126.59    -29.63     20.00
   19.9238    127.02    126.64    -28.27     20.00
   19.9339    124.48    126.70    -30.87     20.00
   19.9441    127.43    126.77    -27.99     20.00
   19.9543    126.66    126.85    -28.84     20.00
   19.9644    127.18    126.94    -28.41     20.00
   19.9746    128.34    127.04    -27.35     20.00
   19.9848    125.54    127.16    -30.27     20.00
   19.9949    126.70    127.28    -29.23     20.00
   20.0051    126.48    127.42    -29.59     20.00
   20.0153    128.71    127.57    -27.51     20.00
   20.0254    128.30    127.74    -28.08     20.00
   20.0356    127.90    127.91    -28.66     20.00
   20.0458    128.58    128.10    -28.17     20.00
   20.0559    128.81    128.31    -28.14     20.00
   20.0661    128.30    128.53    -28.87     20.00
   20.0763    130.99    128.76    -26.42     20.00
   20.0864    129.14    129.01    -28.51     20.00
   20.0966    128.65    129.27    -29.27     20.00
   20.1067    132.37    129.55    -25.82     20.00
   20.1169    130.99    129.84    -27.50     20.00
   20.1271    129.39    130.15    -29.41     20.00
   20.1372    132.02    130.47    -27.10     20.00
   20.1474    132.84    130.82    -26.62     20.00
   20.1576    134.58    131.17    -25.24     20.00
   20.1677    134.14    131.54    -26.05     20.00
   20.1779    133.40    131.93    -27.18     20.00
   20.1881    133.53    132.34    -27.45     20.00
   20.1982    135.09    132.75    -26.31     20.00
   20.2084    136.02    133.19    -25.81     20.00
   20.2186    133.72    133.64    -28.57     20.00
   20.2287    135.59    134.10    -27.16     20.00
   20.2389    135.68    134.58    -27.54     20.00
   20.2490    135.18    135.07    -28.53     20.00
   20.2592    138.14    135.57    -26.08     20.00
   20.2694    139.41    136.09    -25.32     20.00
   20.2795    137.41    136.61    -27.85     20.00
   20.2897    137.26    137.15    -28.54     20.00
   20.2999    141.02    137.70    -25.33     20.00
   20.3100    138.34    138.25    -28.56     20.00
   20.3202    142.72    138.81    -24.74     20.00
   20.3304    142.20    139.38    -25.83     20.00
   20.3405    139.91    139.95    -28.69     20.00
   20.3507    140.18    140.53    -28.99     20.00
   20.3609    142.47    141.10    -27.28     20.00
   20.3710    141.02    141.67    -29.30     20.00
   20.3812    142.05    142.24    -28.84     20.00
   20.3914    144.18    142.80    -27.27     20.00
   20.4015    141.05    143.35    -30.95     20.00
   20.4117    142.43    143.90    -30.11     20.00
   20.4218    144.96    144.42    -28.11     20.00
   20.4320    144.71    144.94    -28.87     20.00
   20.4422    143.79    145.43    -30.29     20.00
   20.4523    143.70    145.90    -30.84     20.00
   20.4625    143.46    146.34    -31.53     20.00
   20.4727    145.73    146.76    -29.68     20.00
   20.4828    148.36    147.14    -27.43     20.00
   20.4930    143.72    147.49    -32.41     20.00
   20.5032    146.93    147.80    -29.51     20.00
   20.5133    148.46    148.06    -28.25     20.00
   20.5235    147.07    148.29    -29.86     20.00
   20.5337    147.73    148.46    -29.38     20.00
   20.5438    148.34    148.59    -28.90     20.00
   20.5540    146.76    148.67    -30.55     20.00
   20.5641    147.52    148.70    -29.82     20.00
   20.5743    148.59    148.67    -28.73     20.00
   20.5845    147.57    148.59    -29.67     20.00
   20.5946    147.30    148.46    -29.80     20.00
   20.6048    147.63    148.27    -29.29     20.00
   20.6150    147.04    148.04    -29.64     20.00
   20.6251    146.51    147.75    -29.89     20.00
   20.6353    146.20    147.42    -29.86     20.00
   20.6455    147.01    147.03    -28.67     20.00
   20.6556    147.08    146.61    -28.18     20.00
   20.6658    144.33    146.14    -30.46     20.00
   20.6760    146.62    145.63    -27.66     20.00
   20.6861    144.31    145.10    -29.43     20.00
   20.6963    145.10    144.52    -28.07     20.00
   20.7065    143.84    143.92    -28.73     20.00
   20.7166    143.56    143.30    -28.38     20.00
   20.7268    144.02    142.64    -27.27     20.00
   20.7369    141.52    141.98    -29.10     20.00
   20.7471    142.55    141.29    -27.39     20.00
   20.7573    141.40    140.59    -27.83     20.00
   20.7674    138.51    139.88    -30.02     20.00
   20.7776    141.87    139.16    -25.94     20.00
   20.7878    140.21    138.43    -26.87     20.00
   20.7979    138.68    137.71    -27.67     20.00
   20.8081    139.04    136.98    -26.58     20.00
   20.8183    139.56    136.24    -25.33     20.00
   20.8284    136.12    135.52    -28.05     20.00
   20.8386    136.95    134.80    -26.49     20.00
   20.8488    137.64    134.08    -25.08     20.00
   20.8589    134.35    133.37    -27.67     20.00
   20.8691    134.02    132.67    -27.29     20.00
   20.8792    132.88    131.98    -27.75     20.00
   20.8894    132.18    131.30    -27.76     20.00
   20.8996    131.62    130.63    -27.65     20.00
   20.9097    132.30    129.97    -26.32     20.00
   20.9199    129.69    129.33    -28.28     20.00
   20.9301    130.55    128.70    -26.79     20.00
   20.9402    130.88    128.08    -25.85     20.00
   20.9504    129.97    127.48    -26.16     20.00
   20.9606    127.59    126.89    -27.95     20.00
   20.9707    125.90    126.33    -29.08     20.00
   20.9809    126.82    125.77    -27.60     20.00
   20.9911    127.71    125.24    -26.17     20.00
   21.0012    125.01    124.72    -28.35     20.00
   21.0114    124.92    124.21    -27.94     20.00
   21.0216    126.21    123.72    -26.16     20.00
   21.0317    125.79    123.26    -26.11     20.00
   21.0419    123.61    122.80    -27.84     20.00
   21.0520    123.08    122.36    -27.93     20.00
   21.0622    121.64    121.94    -28.95     20.00
   21.0724    120.37    121.53    -29.81     20.00
   21.0825    122.60    121.15    -27.19     20.00
   21.0927    122.15    120.77    -27.27     20.00
   21.1029    119.94    120.41    -29.12     20.00
   21.1130    120.80    120.07    -27.92     20.00
   21.1232    120.59    119.75    -27.80     20.00
   21.1334    118.16    119.43    -29.92     20.00
   21.1435    118.42    119.14    -29.36     20.00
   21.1537    118.01    118.85    -29.49     20.00
   21.1639    115.46    118.58    -31.77     20.00
   21.1740    117.52    118.33    -29.45     20.00
   21.1842    117.45    118.08    -29.28     20.00
   21.1943    116.41    117.86    -30.09     20.00
   21.2045    115.73    117.64    -30.56     20.00
   21.2147    115.81    117.44    -30.27     20.00
   21.2248    114.86    117.25    -31.03     20.00
   21.2350    114.82    117.07    -30.89     20.00
   21.2452    115.89    116.90    -29.65     20.00
   21.2553    113.34    116.74    -32.05     20.00
   21.2655    113.96    116.60    -31.28     20.00
   21.2757    114.73    116.46    -30.38     20.00
   21.2858    112.98    116.34    -32.01     20.00
   21.2960    112.49    116.23    -32.39     20.00
   21.3062    112.86    116.13    -31.92     20.00
   21.3163    112.29    116.04    -32.40     20.00
   21.3265    113.62    115.96    -30.98     20.00
   21.3366    113.40    115.89    -31.14     20.00
   21.3468    112.38    115.83    -32.09     20.00
   21.3570    111.28    115.78    -33.14     20.00
   21.3671    112.24    115.74    -32.14     20.00
   21.3773    111.74    115.71    -32.61     20.00
   21.3875    112.51    115.69    -31.82     20.00
   21.3976    112.43    115.68    -31.89     20.00
   21.4078    111.43    115.68    -32.89     20.00
   21.4180    111.66    115.69    -32.67     20.00
   21.4281    110.76    115.71    -33.59     20.00
   21.4383    111.79    115.74    -32.59     20.00
   21.4485    111.88    115.78    -32.54     20.00
   21.4586    112.35    115.83    -32.12     20.00
   21.4688    109.62    115.89    -34.91     20.00
   21.4790    112.53    115.96    -32.08     20.00
   21.4891    113.34    116.04    -31.35     20.00
   21.4993    110.40    116.13    -34.38     20.00
   21.5094    112.37    116.24    -32.51     20.00
   21.5196    112.34    116.35    -32.66     20.00
   21.5298    111.75    116.48    -33.37     20.00
   21.5399    112.68    116.62    -32.58     20.00
   21.5501    113.18    116.77    -32.23     20.00
   21.5603    111.15    116.93    -34.42     20.00
   21.5704    112.75    117.10    -33.00     20.00
   21.5806    114.60    117.29    -31.33     20.00
   21.5908    112.62    117.49    -33.51     20.00
   21.6009    112.27    117.70    -34.07     20.00
   21.6111    113.68    117.92    -32.89     20.00
   21.6213    113.54    118.16    -33.27     20.00
   21.6314    114.12    118.41    -32.94     20.00
   21.6416    115.34    118.68    -31.98     20.00
   21.6517    114.84    118.95    -32.76     20.00
   21.6619    115.54    119.25    -32.35     20.00
   21.6721    116.87    119.56    -31.33     20.00
   21.6822    115.95    119.88    -32.57     20.00
   21.6924    117.84    120.22    -31.02     20.00
   21.7026    118.48    120.57    -30.74     20.00
   21.7127    117.92    120.94    -31.66     20.00
   21.7229    116.46    121.32    -33.51     20.00
   21.7331    120.68    121.72    -29.69     20.00
   21.7432    120.15    122.13    -30.63     20.00
   21.7534    121.83    122.57    -29.38     20.00
   21.7636    120.92    123.01    -30.74     20.00
   21.7737    121.76    123.48    -30.36     20.00
   21.7839    123.76    123.96    -28.84     20.00
   21.7941    124.56    124.45    -28.54     20.00
   21.8042    124.62    124.96    -28.99     20.00
   21.8144    126.35    125.50    -27.79     20.00
   21.8245    124.80    126.04    -29.89     20.00
   21.8347    124.62    126.60    -30.63     20.00
   21.8449    127.73    127.19    -28.10     20.00
   21.8550    128.63    127.78    -27.80     20.00
   21.8652    126.12    128.40    -30.92     20.00
   21.8754    129.78    129.03    -27.89     20.00
   21.8855    129.26    129.67    -29.06     20.00
   21.8957    128.16    130.34    -30.82     20.00
   21.9059    133.15    131.02    -26.51     20.00
   21.9160    131.09    131.71    -29.27     20.00
   21.9262    130.94    132.43    -30.13     20.00
   21.9364    133.30    133.16    -28.50     20.00
   21.9465    136.00    133.89    -26.54     20.00
   21.9567    134.21    134.66    -29.09     20.00
   21.9668    138.48    135.42    -25.59     20.00
   21.9770    137.17    136.22    -27.69     20.00
   21.9872    136.39    137.02    -29.28     20.00
   21.9973    138.76    137.83    -27.72     20.00
   22.0075    138.97    138.66    -28.34     20.00
   22.0177    140.57    139.51    -27.58     20.00
   22.0278    143.26    140.36    -25.74     20.00
   22.0380    142.30    141.23    -27.57     20.00
   22.0482    142.74    142.11    -28.01     20.00
   22.0583    146.38    142.99    -25.25     20.00
   22.0685    145.95    143.89    -26.58     20.00
   22.0787    146.31    144.80    -27.13     20.00
   22.0888    148.43    145.70    -25.92     20.00
   22.0990    150.20    146.63    -25.07     20.00
   22.1092    150.13    147.55    -26.07     20.00
   22.1193    152.37    148.48    -24.75     20.00
   22.1295    152.78    149.41    -25.28     20.00
   22.1396    151.67    150.35    -27.32     20.00
   22.1498    156.83    151.29    -23.10     20.00
   22.1600    155.61    152.23    -25.26     20.00
   22.1701    155.55    153.16    -26.25     20.00
   22.1803    160.13    154.09    -22.61     20.00
   22.1905    158.74    155.03    -24.93     20.00
   22.2006    157.74    155.94    -26.85     20.00
   22.2108    160.63    156.86    -24.88     20.00
   22.2210    161.53    157.77    -24.89     20.00
   22.2311    161.24    158.66    -26.07     20.00
   22.2413    164.39    159.54    -23.80     20.00
   22.2515    163.55    160.41    -25.51     20.00
   22.2616    163.53    161.26    -26.37     20.00
   22.2718    165.40    162.09    -25.34     20.00
   22.2819    168.81    162.90    -22.73     20.00
   22.2921    164.19    163.69    -28.14     20.00
   22.3023    167.23    164.45    -25.87     20.00
   22.3124    169.70    165.18    -24.13     20.00
   22.3226    165.93    165.89    -28.60     20.00
   22.3328    170.27    166.56    -24.94     20.00
   22.3429    170.02    167.20    -25.82     20.00
   22.3531    168.99    167.80    -27.46     20.00
   22.3633    169.99    168.36    -27.02     20.00
   22.3734    171.55    168.88    -25.98     20.00
   22.3836    170.02    169.37    -27.99     20.00
   22.3938    171.58    169.80    -26.87     20.00
   22.4039    171.66    170.19    -27.17     20.00
   22.4141    170.30    170.53    -28.88     20.00
   22.4243    171.49    170.82    -27.98     20.00
   22.4344    172.59    171.06    -27.12     20.00
   22.4446    171.52    171.25    -28.37     20.00
   22.4547    169.46    171.38    -30.56     20.00
   22.4649    173.01    171.46    -27.09     20.00
   22.4751    169.20    171.48    -30.92     20.00
   22.4852    173.14    171.44    -26.95     20.00
   22.4954    170.02    171.35    -29.98     20.00
   22.5056    169.20    171.20    -30.65     20.00
   22.5157    170.53    170.99    -29.11     20.00
   22.5259    168.71    170.73    -30.67     20.00
   22.5361    167.72    170.41    -31.33     20.00
   22.5462    166.60    170.03    -32.08     20.00
   22.5564    168.70    169.60    -29.55     20.00
   22.5666    165.99    169.11    -31.77     20.00
   22.5767    165.84    168.58    -31.39     20.00
   22.5869    165.09    167.99    -31.54     20.00
   22.5970    161.96    167.35    -34.04     20.00
   22.6072    162.01    166.66    -33.30     20.00
   22.6174    163.90    165.92    -30.67     20.00
   22.6275    161.38    165.15    -32.41     20.00
   22.6377    161.80    164.32    -31.17     20.00
   22.6479    160.77    163.45    -31.33     20.00
   22.6580    159.49    162.55    -31.71     20.00
   22.6682    159.32    161.61    -30.94     20.00
   22.6784    159.32    160.63    -29.96     20.00
   22.6885    155.72    159.63    -32.56     20.00
   22.6987    155.20    158.59    -32.04     20.00
   22.7089    155.45    157.52    -30.72     20.00
   22.7190    151.84    156.44    -33.25     20.00
   22.7292    153.24    155.32    -30.73     20.00
   22.7394    153.54    154.18    -29.29     20.00
   22.7495    149.80    153.04    -31.88     20.00
   22.7597    150.21    151.86    -30.30     20.00
   22.7698    147.17    150.68    -32.16     20.00
   22.7800    144.53    149.48    -33.59     20.00
   22.7902    147.16    148.26    -29.75     20.00
   22.8003    147.40    147.05    -28.30     20.00
   22.8105    146.21    145.82    -28.25     20.00
   22.8207    142.08    144.58    -31.14     20.00
   22.8308    141.82    143.35    -30.17     20.00
   22.8410    140.40    142.10    -30.35     20.00
   22.8512    139.93    140.85    -29.57     20.00
   22.8613    139.68    139.61    -28.58     20.00
   22.8715    137.74    138.37    -29.27     20.00
   22.8817    136.85    137.12    -28.92     20.00
   22.8918    134.39    135.89    -30.15     20.00
   22.9020    133.84    134.66    -29.46     20.00
   22.9121    134.10    133.44    -27.98     20.00
   22.9223    133.45    132.21    -27.41     20.00
   22.9325    130.25    130.99    -29.39     20.00
   22.9426    130.38    129.80    -28.06     20.00
   22.9528    129.30    128.60    -27.95     20.00
   22.9630    125.71    127.41    -30.35     20.00
   22.9731    127.55    126.24    -27.34     20.00
   22.9833    127.17    125.08    -26.55     20.00
   22.9935    124.57    123.92    -28.00     20.00
   23.0036    122.71    122.79    -28.73     20.00
   23.0138    123.93    121.67    -26.38     20.00
   23.0240    122.72    120.55    -26.48     20.00
   23.0341    120.57    119.46    -27.54     20.00
   23.0443    119.48    118.38    -27.54     20.00
   23.0545    117.98    117.31    -27.97     20.00
   23.0646    119.45    116.26    -25.46     20.00
   23.0748    119.02    115.22    -24.85     20.00
   23.0849    115.10    114.21    -27.75     20.00
   23.0951    116.98    113.20    -24.87     20.00
   23.1053    114.40    112.21    -26.45     20.00
   23.1154    111.88    111.24    -28.01     20.00
   23.1256    112.11    110.28    -26.82     20.00
   23.1358    112.90    109.34    -25.09     20.00
   23.1459    109.83    108.43    -27.24     20.00
   23.1561    111.23    107.52    -24.93     20.00
   23.1663    109.50    106.63    -25.77     20.00
   23.1764    109.99    105.76    -24.42     20.00
   23.1866    108.23    104.90    -25.32     20.00
   23.1968    105.46    104.06    -27.25     20.00
   23.2069    104.81    103.24    -27.08     20.00
   23.2171    105.27    102.44    -25.81     20.00
   23.2272    105.72    101.65    -24.58     20.00
   23.2374    104.64    100.88    -24.88     20.00
   23.2476    103.10    100.12    -25.66     20.00
   23.2577    101.75     99.38    -26.28     20.00
   23.2679    101.82     98.66    -25.48     20.00
   23.2781     99.42     97.95    -27.17     20.00
   23.2882     98.91     97.26    -26.99     20.00
   23.2984    100.10     96.58    -25.12     20.00
   23.3086     98.53     95.91    -26.03     20.00
   23.3187     99.22     95.27    -24.70     20.00
   23.3289     97.35     94.64    -25.93     20.00
   23.3391     98.05     94.01    -24.61     20.00
   23.3492     95.96     93.41    -26.10     20.00
   23.3594     95.28     92.82    -26.19     20.00
   23.3695     93.06     92.25    -27.84     20.00
   23.3797     92.88     91.68    -27.45     20.00
   23.3899     93.62     91.13    -26.16     20.00
   23.4000     95.43     90.60    -23.81     20.00
   23.4102     91.71     90.07    -27.01     20.00
   23.4204     92.27     89.56    -25.93     20.00
   23.4305     92.13     89.06    -25.58     20.00
   23.4407     90.72     88.57    -26.50     20.00
   23.4509     91.74     88.09    -25.00     20.00
   23.4610     89.12     87.63    -27.15     20.00
   23.4712     88.71     87.17    -27.11     20.00
   23.4814     88.76     86.72    -26.61     20.00
   23.4915     87.95     86.29    -26.99     20.00
   23.5017     86.70     85.87    -27.81     20.00
   23.5119     86.69     85.45    -27.41     20.00
   23.5220     86.41     85.05    -27.28     20.00
   23.5322     85.10     84.65    -28.20     20.00
   23.5423     83.74     84.27    -29.17     20.00
   23.5525     83.83     83.89    -28.70     20.00
   23.5627     84.66     83.51    -27.50     20.00
   23.5728     82.95     83.15    -28.85     20.00
   23.5830     84.23     82.80    -27.21     20.00
   23.5932     84.45     82.45    -26.65     20.00
   23.6033     81.38     82.11    -29.38     20.00
   23.6135     82.00     81.78    -28.42     20.00
   23.6237     82.20     81.45    -27.90     20.00
   23.6338     81.20     81.13    -28.58     20.00
   23.6440     80.59     80.82    -28.88     20.00
   23.6542     81.09     80.51    -28.07     20.00
   23.6643     81.24     80.21    -27.62     20.00
   23.6745     79.66     79.92    -28.90     20.00
   23.6846     79.84     79.63    -28.44     20.00
   23.6948     79.16     79.34    -28.83     20.00
   23.7050     78.00     79.06    -29.71     20.00
   23.7151     78.15     78.79    -29.29     20.00
   23.7253     76.52     78.52    -30.65     20.00
   23.7355     77.60     78.26    -29.30     20.00
   23.7456     77.13     78.00    -29.51     20.00
   23.7558     77.38     77.74    -29.01     20.00
   23.7660     75.30     77.49    -30.83     20.00
   23.7761     77.38     77.24    -28.51     20.00
   23.7863     75.78     77.00    -29.86     20.00
   23.7965     75.61     76.75    -29.79     20.00
   23.8066     75.78     76.52    -29.38     20.00
   23.8168     74.59     76.28    -30.34     20.00
   23.8270     74.37     76.05    -30.33     20.00
   23.8371     73.54     75.83    -30.93     20.00
   23.8473     74.26     75.60    -29.99     20.00
   23.8574     74.13     75.38    -29.90     20.00
   23.8676     73.27     75.16    -30.54     20.00
   23.8778     72.81     74.95    -30.78     20.00
   23.8879     73.03     74.73    -30.35     20.00
   23.8981     72.66     74.52    -30.51     20.00
   23.9083     72.70     74.31    -30.26     20.00
   23.9184     72.30     74.11    -30.45     20.00
   23.9286     72.45     73.90    -30.10     20.00
   23.9388     71.07     73.70    -31.28     20.00
   23.9489     70.67     73.50    -31.48     20.00
   23.9591     71.04     73.30    -30.91     20.00
   23.9693     71.28     73.11    -30.47     20.00
   23.9794     69.59     72.91    -31.97     20.00
   23.9896     70.05     72.72    -31.32     20.00
   23.9997     69.52     72.53    -31.66     20.00
   24.0099     68.63     72.34    -32.36     20.00
   24.0201     69.40     72.16    -31.40     20.00
   24.0302     69.99     71.97    -30.63     20.00
   24.0404     69.64     71.79    -30.79     20.00
   24.0506     68.87     71.60    -31.38     20.00
   24.0607     67.60     71.42    -32.47     20.00
   24.0709     67.99     71.24    -31.90     20.00
   24.0811     68.62     71.06    -31.09     20.00
   24.0912     68.99     70.89    -30.54     20.00
   24.1014     68.15     70.71    -31.21     20.00
   24.1116     66.84     70.54    -32.34     20.00
   24.1217     65.78     70.36    -33.23     20.00
   24.1319     67.91     70.19    -30.93     20.00
   24.1421     66.68     70.02    -31.99     20.00
   24.1522     66.80     69.85    -31.70     20.00
   24.1624     66.37     69.68    -31.96     20.00
   24.1725     66.65     69.52    -31.51     20.00
   24.1827     66.50     69.35    -31.49     20.00
   24.1929     65.87     69.18    -31.96     20.00
   24.2030     66.62     69.02    -31.04     20.00
   24.2132     66.52     68.85    -30.98     20.00
   24.2234     64.30     68.69    -33.04     20.00
   24.2335     64.86     68.53    -32.32     20.00
   24.2437     64.95     68.37    -32.06     20.00
   24.2539     64.68     68.21    -32.17     20.00
   24.2640     65.14     68.05    -31.56     20.00
   24.2742     63.73     67.89    -32.81     20.00
   24.2844     64.87     67.73    -31.51     20.00
   24.2945     63.77     67.58    -32.45     20.00
   24.3047     64.10     67.42    -31.97     20.00
   24.3148     62.80     67.27    -33.11     20.00
   24.3250     63.78     67.11    -31.98     20.00
   24.3352     63.66     66.96    -31.94     20.00
   24.3453     64.27     66.81    -31.18     20.00
   24.3555     63.67     66.65    -31.63     20.00
   24.3657     63.62     66.50    -31.53     20.00
   24.3758     61.93     66.35    -33.07     20.00
   24.3860     61.96     66.20    -32.89     20.00
   24.3962     62.81     66.05    -31.89     20.00
   24.4063     64.00     65.91    -30.55     20.00
   24.4165     61.78     65.76    -32.62     20.00
   24.4267     62.57     65.61    -31.69     20.00
   24.4368     62.24     65.46    -31.87     20.00
   24.4470     61.73     65.32    -32.23     20.00
   24.4572     61.35     65.17    -32.47     20.00
   24.4673     62.37     65.03    -31.31     20.00
   24.4775     61.26     64.89    -32.27     20.00
   24.4876     61.84     64.74    -31.55     20.00
   24.4978     62.43     64.60    -30.82     20.00
   24.5080     61.13     64.46    -31.97     20.00
   24.5181     60.01     64.32    -32.95     20.00
   24.5283     60.62     64.18    -32.20     20.00
   24.5385     60.44     64.04    -32.24     20.00
   24.5486     60.24     63.90    -32.30     20.00
   24.5588     60.12     63.76    -32.28     20.00
   24.5690     60.98     63.62    -31.29     20.00
   24.5791     59.63     63.48    -32.50     20.00
   24.5893     60.95     63.35    -31.04     20.00
   24.5995     60.07     63.21    -31.78     20.00
   24.6096     61.01     63.07    -30.71     20.00
   24.6198     60.16     62.94    -31.42     20.00
   24.6299     60.76     62.80    -30.69     20.00
   24.6401     61.16     62.67    -30.16     20.00
   24.6503     59.08     62.54    -32.10     20.00
   24.6604     58.87     62.40    -32.18     20.00
   24.6706     60.15     62.27    -30.77     20.00
   24.6808     59.03     62.14    -31.75     20.00
   24.6909     59.85     62.01    -30.80     20.00
   24.7011     60.20     61.88    -30.32     20.00
   24.7113     59.12     61.74    -31.27     20.00
   24.7214     59.38     61.62    -30.88     20.00
   24.7316     59.07     61.49    -31.06     20.00
   24.7418     59.33     61.36    -30.67     20.00
   24.7519     58.29     61.23    -31.58     20.00
   24.7621     58.86     61.10    -30.89     20.00
   24.7723     57.99     60.97    -31.63     20.00
   24.7824     58.66     60.85    -30.83     20.00
   24.7926     58.09     60.72    -31.28     20.00
   24.8027     58.76     60.59    -30.48     20.00
   24.8129     58.45     60.47    -30.67     20.00
   24.8231     57.45     60.34    -31.54     20.00
   24.8332     57.72     60.22    -31.15     20.00
   24.8434     58.55     60.10    -30.19     20.00
   24.8536     57.80     59.97    -30.82     20.00
   24.8637     57.70     59.85    -30.80     20.00
   24.8739     57.62     59.73    -30.75     20.00
   24.8841     57.76     59.60    -30.49     20.00
   24.8942     58.63     59.48    -29.50     20.00
   24.9044     58.12     59.36    -29.89     20.00
   24.9146     58.15     59.24    -29.74     20.00
   24.9247     59.65     59.12    -28.12     20.00
   24.9349     58.18     59.00    -29.47     20.00
   24.9450     57.61     58.88    -29.92     20.00
   24.9552     56.22     58.76    -31.19     20.00
   24.9654     56.99     58.65    -30.30     20.00
   24.9755     56.78     58.53    -30.40     20.00
   24.9857     57.11     58.41    -29.95     20.00
   24.9959     57.38     58.29    -29.56     20.00
   25.0060     57.48     58.18    -29.34     20.00
   25.0162     56.41     58.06    -30.30     20.00
   25.0264     57.22     57.95    -29.37     20.00
   25.0365     56.99     57.83    -29.49     20.00
   25.0467     56.87     57.72    -29.49     20.00
   25.0569     56.90     57.60    -29.35     20.00
   25.0670     56.05     57.49    -30.09     20.00
   25.0772     56.87     57.38    -29.15     20.00
   25.0874     55.37     57.26    -30.54     20.00
   25.0975     57.60     57.15    -28.20     20.00
   25.1077     56.71     57.04    -28.97     20.00
   25.1178     56.54     56.93    -29.03     20.00
   25.1280     56.00     56.82    -29.46     20.00
   25.1382     56.62     56.70    -28.73     20.00
   25.1483     56.34     56.60    -28.90     20.00
   25.1585     56.15     56.48    -28.98     20.00
   25.1687     55.85     56.38    -29.17     20.00
   25.1788     55.84     56.27    -29.07     20.00
   25.1890     55.47     56.16    -29.33     20.00
   25.1992     56.93     56.05    -27.77     20.00
   25.2093     56.74     55.94    -27.85     20.00
   25.2195     56.28     55.83    -28.20     20.00
   25.2297     55.98     55.73    -28.39     20.00
   25.2398     56.12     55.62    -28.15     20.00
   25.2500     54.46     55.52    -29.70     20.00
   25.2601     55.53     55.41    -28.53     20.00
   25.2703     54.95     55.31    -29.00     20.00
   25.2805     54.36     55.20    -29.49     20.00
   25.2906     54.60     55.10    -29.14     20.00
   25.3008     54.14     54.99    -29.50     20.00
   25.3110     54.76     54.89    -28.77     20.00
   25.3211     55.14     54.79    -28.29     20.00
   25.3313     56.05     54.68    -27.28     20.00
   25.3415     55.39     54.58    -27.84     20.00
   25.3516     55.24     54.48    -27.88     20.00
   25.3618     55.37     54.38    -27.65     20.00
   25.3720     54.95     54.28    -27.97     20.00
   25.3821     54.47     54.18    -28.35     20.00
   25.3923     55.12     54.08    -27.60     20.00
   25.4024     55.16     53.98    -27.46     20.00
   25.4126     55.36     53.88    -27.16     20.00
   25.4228     54.74     53.78    -27.68     20.00
   25.4329     54.05     53.68    -28.28     20.00
   25.4431     55.41     53.58    -26.82     20.00
   25.4533     55.75     53.48    -26.38     20.00
   25.4634     55.40     53.39    -26.63     20.00
   25.4736     54.65     53.29    -27.28     20.00
   25.4838     55.34     53.19    -26.50     20.00
   25.4939     54.76     53.10    -26.98     20.00
   25.5041     54.53     53.00    -27.12     20.00
   25.5143     54.12     52.90    -27.43     20.00
   25.5244     54.12     52.81    -27.34     20.00
   25.5346     54.58     52.72    -26.78     20.00
   25.5448     55.02     52.62    -26.25     20.00
   25.5549     53.38     52.53    -27.79     20.00
   25.5651     54.09     52.43    -26.99     20.00
   25.5752     54.66     52.34    -26.33     20.00
   25.5854     53.43     52.25    -27.47     20.00
   25.5956     54.36     52.16    -26.44     20.00
   25.6057     53.91     52.07    -26.80     20.00
   25.6159     54.34     51.97    -26.28     20.00
   25.6261     54.18     51.88    -26.35     20.00
   25.6362     55.04     51.79    -25.40     20.00
   25.6464     53.50     51.70    -26.85     20.00
   25.6566     54.82     51.61    -25.44     20.00
   25.6667     54.11     51.52    -26.06     20.00
   25.6769     52.30     51.44    -27.78     20.00
   25.6871     54.13     51.35    -25.86     20.00
   25.6972     53.79     51.26    -26.12     20.00
   25.7074     53.69     51.17    -26.13     20.00
   25.7175     53.07     51.09    -26.66     20.00
   25.7277     53.42     51.00    -26.22     20.00
   25.7379     53.48     50.91    -26.08     20.00
   25.7480     53.28     50.83    -26.19     20.00
   25.7582     52.93     50.74    -26.46     20.00
   25.7684     53.19     50.66    -26.11     20.00
   25.7785     53.71     50.57    -25.51     20.00
   25.7887     53.40     50.49    -25.73     20.00
   25.7989     52.68     50.40    -26.37     20.00
   25.8090     53.05     50.32    -25.92     20.00
   25.8192     52.87     50.24    -26.01     20.00
   25.8294     51.80     50.15    -27.00     20.00
   25.8395     52.63     50.07    -26.09     20.00
   25.8497     53.06     49.99    -25.58     20.00
   25.8599     51.77     49.91    -26.78     20.00
   25.8700     52.35     49.83    -26.12     20.00
   25.8802     53.55     49.75    -24.84     20.00
   25.8903     51.96     49.67    -26.35     20.00
   25.9005     52.37     49.59    -25.86     20.00
   25.9107     52.74     49.51    -25.41     20.00
   25.9208     52.65     49.43    -25.43     20.00
   25.9310     52.45     49.35    -25.55     20.00
   25.9412     52.20     49.27    -25.72     20.00
   25.9513     52.08     49.20    -25.76     20.00
   25.9615     52.36     49.12    -25.40     20.00
   25.9717     52.32     49.04    -25.37     20.00
   25.9818     51.91     48.97    -25.70     20.00
   25.9920     51.68     48.89    -25.86     20.00
   26.0022     51.48     48.81    -25.98     20.00
   26.0123     51.42     48.74    -25.97     20.00
   26.0225     51.30     48.66    -26.01     20.00
   26.0326     51.76     48.59    -25.48     20.00
   26.0428     51.49     48.52    -25.67     20.00
   26.0530     51.85     48.44    -25.24     20.00
   26.0631     50.83     48.37    -26.19     20.00
   26.0733     50.52     48.30    -26.43     20.00
   26.0835     51.52     48.23    -25.35     20.00
   26.0936     51.21     48.16    -25.59     20.00
   26.1038     51.20     48.09    -25.53     20.00
   26.1140     50.29     48.01    -26.37     20.00
   26.1241     50.63     47.95    -25.96     20.00
   26.1343     51.29     47.88    -25.23     20.00
   26.1445     51.20     47.81    -25.25     20.00
   26.1546     50.84     47.74    -25.54     20.00
   26.1648     51.04     47.67    -25.28     20.00
   26.1750     50.59     47.60    -25.66     20.00
   26.1851     50.35     47.54    -25.83     20.00
   26.1953     50.42     47.47    -25.70     20.00
   26.2054     50.05     47.40    -26.00     20.00
   26.2156     50.68     47.34    -25.30     20.00
   26.2258     50.73     47.27    -25.19     20.00
   26.2359     51.27     47.21    -24.58     20.00
   26.2461     50.63     47.14    -25.16     20.00
   26.2563     50.71     47.08    -25.02     20.00
   26.2664     50.59     47.02    -25.07     20.00
   26.2766     49.99     46.96    -25.61     20.00
   26.2868     51.62     46.89    -23.92     20.00
   26.2969     49.45     46.83    -26.03     20.00
   26.3071     50.13     46.77    -25.29     20.00
   26.3173     49.94     46.71    -25.42     20.00
   26.3274     49.47     46.65    -25.83     20.00
   26.3376     50.26     46.59    -24.98     20.00
   26.3477     50.15     46.53    -25.03     20.00
   26.3579     49.09     46.48    -26.03     20.00
   26.3681     49.57     46.42    -25.49     20.00
   26.3782     49.41     46.36    -25.60     20.00
   26.3884     50.04     46.31    -24.91     20.00
   26.3986     50.52     46.25    -24.38     20.00
   26.4087     48.67     46.20    -26.17     20.00
   26.4189     48.85     46.14    -25.94     20.00
   26.4291     48.96     46.09    -25.77     20.00
   26.4392     49.04     46.04    -25.64     20.00
   26.4494     49.30     45.98    -25.33     20.00
   26.4596     49.23     45.93    -25.35     20.00
   26.4697     49.20     45.88    -25.33     20.00
   26.4799     47.73     45.83    -26.75     20.00
   26.4901     48.23     45.78    -26.20     20.00
   26.5002     48.88     45.73    -25.50     20.00
   26.5104     49.99     45.68    -24.34     20.00
   26.5205     48.49     45.64    -25.79     20.00
   26.5307     48.55     45.59    -25.69     20.00
   26.5409     48.72     45.54    -25.47     20.00
   26.5510     48.37     45.50    -25.77     20.00
   26.5612     49.08     45.45    -25.02     20.00
   26.5714     48.76     45.41    -25.30     20.00
   26.5815     48.86     45.37    -25.15     20.00
   26.5917     49.63     45.33    -24.34     20.00
   26.6019     48.89     45.29    -25.04     20.00
   26.6120     48.29     45.25    -25.60     20.00
   26.6222     47.66     45.21    -26.19     20.00
   26.6324     48.02     45.17    -25.79     20.00
   26.6425     49.23     45.13    -24.55     20.00
   26.6527     48.25     45.09    -25.49     20.00
   26.6628     48.68     45.06    -25.03     20.00
   26.6730     48.20     45.03    -25.47     20.00
   26.6832     48.54     44.99    -25.10     20.00
   26.6933     48.91     44.96    -24.70     20.00
   26.7035     47.76     44.93    -25.81     20.00
   26.7137     48.61     44.90    -24.93     20.00
   26.7238     47.47     44.87    -26.04     20.00
   26.7340     49.37     44.84    -24.12     20.00
   26.7442     48.68     44.81    -24.78     20.00
   26.7543     48.07     44.79    -25.36     20.00
   26.7645     47.59     44.76    -25.82     20.00
   26.7747     48.46     44.74    -24.93     20.00
   26.7848     47.16     44.72    -26.20     20.00
   26.7950     48.22     44.70    -25.12     20.00
   26.8052     47.93     44.68    -25.39     20.00
   26.8153     47.49     44.66    -25.81     20.00
   26.8255     47.64     44.64    -25.65     20.00
   26.8356     47.98     44.63    -25.29     20.00
   26.8458     48.74     44.61    -24.52     20.00
   26.8560     48.70     44.60    -24.55     20.00
   26.8661     47.04     44.59    -26.19     20.00
   26.8763     47.54     44.58    -25.68     20.00
   26.8865     48.67     44.57    -24.55     20.00
   26.8966     47.26     44.56    -25.95     20.00
   26.9068     48.76     44.56    -24.44     20.00
   26.9170     47.71     44.55    -25.49     20.00
   26.9271     47.19     44.55    -26.01     20.00
   26.9373     46.93     44.55    -26.27     20.00
   26.9475     47.04     44.55    -26.16     20.00
   26.9576     48.30     44.56    -24.90     20.00
   26.9678     47.95     44.56    -25.26     20.00
   26.9779     47.84     44.57    -25.38     20.00
   26.9881     47.14     44.58    -26.08     20.00
   26.9983     46.78     44.59    -26.46     20.00
   27.0084     48.07     44.60    -25.18     20.00
   27.0186     46.80     44.62    -26.46     20.00
   27.0288     47.77     44.63    -25.51     20.00
   27.0389     47.42     44.65    -25.88     20.00
   27.0491     47.12     44.67    -26.20     20.00
   27.0593     47.93     44.70    -25.41     20.00
   27.0694     47.82     44.72    -25.55     20.00
   27.0796     47.50     44.75    -25.90     20.00
   27.0898     47.77     44.78    -25.66     20.00
   27.0999     47.87     44.81    -25.59     20.00
   27.1101     46.99     44.85    -26.50     20.00
   27.1202     48.42     44.88    -25.11     20.00
   27.1304     47.62     44.92    -25.95     20.00
   27.1406     46.97     44.96    -26.64     20.00
   27.1507     46.99     45.01    -26.66     20.00
   27.1609     47.54     45.06    -26.16     20.00
   27.1711     47.37     45.11    -26.38     20.00
   27.1812     47.31     45.16    -26.49     20.00
   27.1914     46.76     45.21    -27.10     20.00
   27.2016     47.51     45.27    -26.41     20.00
   27.2117     47.45     45.33    -26.53     20.00
   27.2219     46.45     45.39    -27.59     20.00
   27.2321     47.38     45.46    -26.73     20.00
   27.2422     45.98     45.53    -28.20     20.00
   27.2524     47.46     45.60    -26.79     20.00
   27.2626     47.68     45.68    -26.64     20.00
   27.2727     47.79     45.76    -26.61     20.00
   27.2829     47.94     45.84    -26.54     20.00
   27.2930     46.73     45.92    -27.84     20.00
   27.3032     47.49     46.01    -27.16     20.00
   27.3134     47.20     46.10    -27.55     20.00
   27.3235     47.95     46.19    -26.89     20.00
   27.3337     47.89     46.29    -27.05     20.00
   27.3439     47.30     46.39    -27.74     20.00
   27.3540     47.82     46.50    -27.32     20.00
   27.3642     47.84     46.60    -27.41     20.00
   27.3744     48.15     46.71    -27.21     20.00
   27.3845     47.27     46.83    -28.20     20.00
   27.3947     47.75     46.95    -27.84     20.00
   27.4049     47.38     47.07    -28.33     20.00
   27.4150     47.87     47.19    -27.97     20.00
   27.4252     48.35     47.32    -27.62     20.00
   27.4353     48.33     47.45    -27.77     20.00
   27.4455     46.96     47.59    -29.28     20.00
   27.4557     47.54     47.73    -28.84     20.00
   27.4658     48.05     47.87    -28.47     20.00
   27.4760     47.97     48.02    -28.69     20.00
   27.4862     48.21     48.17    -28.61     20.00
   27.4963     48.25     48.32    -28.72     20.00
   27.5065     48.21     48.48    -28.92     20.00
   27.5167     48.05     48.65    -29.24     20.00
   27.5268     49.14     48.81    -28.32     20.00
   27.5370     48.96     48.98    -28.67     20.00
   27.5472     49.09     49.15    -28.71     20.00
   27.5573     49.04     49.33    -28.94     20.00
   27.5675     48.63     49.51    -29.53     20.00
   27.5777     48.70     49.70    -29.64     20.00
   27.5878     47.88     49.89    -30.65     20.00
   27.5980     48.56     50.08    -30.17     20.00
   27.6081     48.63     50.27    -30.29     20.00
   27.6183     49.41     50.48    -29.71     20.00
   27.6285     48.73     50.68    -30.60     20.00
   27.6386     49.37     50.89    -30.16     20.00
   27.6488     50.32     51.10    -29.43     20.00
   27.6590     49.55     51.32    -30.41     20.00
   27.6691     50.99     51.53    -29.19     20.00
   27.6793     50.34     51.76    -30.06     20.00
   27.6895     50.73     51.99    -29.90     20.00
   27.6996     50.48     52.21    -30.38     20.00
   27.7098     51.07     52.45    -30.03     20.00
   27.7200     51.57     52.69    -29.76     20.00
   27.7301     51.67     52.93    -29.90     20.00
   27.7403     51.47     53.17    -30.35     20.00
   27.7504     51.52     53.42    -30.55     20.00
   27.7606     52.16     53.67    -30.16     20.00
   27.7708     51.37     53.93    -31.21     20.00
   27.7809     51.74     54.19    -31.09     20.00
   27.7911     52.34     54.45    -30.75     20.00
   27.8013     51.82     54.71    -31.54     20.00
   27.8114     53.23     54.98    -30.40     20.00
   27.8216     52.26     55.25    -31.64     20.00
   27.8318     53.38     55.53    -30.79     20.00
   27.8419     52.70     55.80    -31.75     20.00
   27.8521     53.26     56.08    -31.47     20.00
   27.8623     53.98     56.37    -31.03     20.00
   27.8724     53.76     56.65    -31.53     20.00
   27.8826     54.10     56.94    -31.48     20.00
   27.8928     53.80     57.23    -32.07     20.00
   27.9029     54.24     57.52    -31.92     20.00
   27.9131     55.37     57.81    -31.09     20.00
   27.9232     55.63     58.11    -31.12     20.00
   27.9334     55.51     58.40    -31.54     20.00
   27.9436     55.85     58.70    -31.50     20.00
   27.9537     55.80     59.00    -31.85     20.00
   27.9639     56.43     59.31    -31.52     20.00
   27.9741     56.90     59.61    -31.36     20.00
   27.9842     57.22     59.91    -31.34     20.00
   27.9944     57.13     60.22    -31.74     20.00
   28.0046     58.94     60.53    -30.23     20.00
   28.0147     57.60     60.83    -31.88     20.00
   28.0249     58.53     61.14    -31.26     20.00
   28.0351     58.81     61.45    -31.28     20.00
   28.0452     59.19     61.75    -31.21     20.00
   28.0554     60.05     62.06    -30.66     20.00
   28.0655     59.90     62.36    -31.11     20.00
   28.0757     60.65     62.67    -30.67     20.00
   28.0859     60.99     62.98    -30.63     20.00
   28.0960     60.71     63.28    -31.21     20.00
   28.1062     62.01     63.58    -30.22     20.00
   28.1164     61.98     63.88    -30.55     20.00
   28.1265     62.40     64.18    -30.42     20.00
   28.1367     63.10     64.47    -30.02     20.00
   28.1469     64.37     64.77    -29.04     20.00
   28.1570     62.95     65.05    -30.75     20.00
   28.1672     64.66     65.34    -29.33     20.00
   28.1774     63.63     65.63    -30.64     20.00
   28.1875     65.24     65.90    -29.31     20.00
   28.1977     66.01     66.18    -28.82     20.00
   28.2079     66.66     66.45    -28.44     20.00
   28.2180     66.76     66.72    -28.60     20.00
   28.2282     67.92     66.98    -27.70     20.00
   28.2383     68.10     67.23    -27.78     20.00
   28.2485     68.70     67.48    -27.43     20.00
   28.2587     69.28     67.73    -27.09     20.00
   28.2688     69.63     67.96    -26.98     20.00
   28.2790     69.87     68.19    -26.97     20.00
   28.2892     70.91     68.42    -26.15     20.00
   28.2993     70.84     68.63    -26.44     20.00
   28.3095     69.34     68.84    -28.15     20.00
   28.3197     71.60     69.04    -26.09     20.00
   28.3298     70.88     69.23    -27.00     20.00
   28.3400     71.01     69.42    -27.05     20.00
   28.3502     71.35     69.59    -26.89     20.00
   28.3603     71.27     69.76    -27.13     20.00
   28.3705     70.66     69.91    -27.90     20.00
   28.3806     71.64     70.06    -27.07     20.00
   28.3908     71.81     70.20    -27.03     20.00
   28.4010     72.14     70.32    -26.83     20.00
   28.4111     71.46     70.44    -27.62     20.00
   28.4213     73.47     70.54    -25.72     20.00
   28.4315     74.16     70.64    -25.12     20.00
   28.4416     72.30     70.72    -27.07     20.00
   28.4518     73.53     70.79    -25.91     20.00
   28.4620     72.57     70.85    -26.93     20.00
   28.4721     72.95     70.90    -26.60     20.00
   28.4823     73.95     70.94    -25.64     20.00
   28.4925     73.07     70.97    -26.54     20.00
   28.5026     71.91     70.98    -27.72     20.00
   28.5128     73.41     70.98    -26.22     20.00
   28.5230     72.95     70.97    -26.67     20.00
   28.5331     73.93     70.95    -25.67     20.00
   28.5433     74.17     70.92    -25.39     20.00
   28.5534     71.93     70.87    -27.59     20.00
   28.5636     72.71     70.82    -26.75     20.00
   28.5738     73.41     70.75    -25.99     20.00
   28.5839     72.02     70.67    -27.30     20.00
   28.5941     73.29     70.58    -25.94     20.00
   28.6043     72.37     70.48    -26.76     20.00
   28.6144     72.09     70.37    -26.92     20.00
   28.6246     73.66     70.25    -25.23     20.00
   28.6348     71.78     70.11    -26.98     20.00
   28.6449     70.71     69.97    -27.90     20.00
   28.6551     72.28     69.81    -26.18     20.00
   28.6653     72.30     69.65    -26.00     20.00
   28.6754     70.40     69.48    -27.72     20.00
   28.6856     70.76     69.30    -27.18     20.00
   28.6957     70.92     69.11    -26.83     20.00
   28.7059     67.61     68.90    -29.94     20.00
   28.7161     68.50     68.70    -28.84     20.00
   28.7262     69.43     68.48    -27.70     20.00
   28.7364     68.49     68.26    -28.41     20.00
   28.7466     68.80     68.02    -27.87     20.00
   28.7567     67.95     67.79    -28.48     20.00
   28.7669     68.12     67.54    -28.07     20.00
   28.7771     68.41     67.29    -27.52     20.00
   28.7872     67.84     67.03    -27.84     20.00
   28.7974     67.18     66.76    -28.23     20.00
   28.8076     67.37     66.49    -27.77     20.00
   28.8177     66.19     66.22    -28.68     20.00
   28.8279     65.25     65.94    -29.34     20.00
   28.8381     66.25     65.66    -28.05     20.00
   28.8482     66.20     65.37    -27.81     20.00
   28.8584     64.35     65.08    -29.37     20.00
   28.8685     64.34     64.78    -29.09     20.00
   28.8787     63.75     64.48    -29.38     20.00
   28.8889     63.54     64.18    -29.28     20.00
   28.8990     64.18     63.87    -28.34     20.00
   28.9092     62.93     63.57    -29.28     20.00
   28.9194     62.85     63.25    -29.05     20.00
   28.9295     62.51     62.94    -29.08     20.00
   28.9397     62.21     62.63    -29.07     20.00
   28.9499     61.44     62.31    -29.52     20.00
   28.9600     61.24     62.00    -29.41     20.00
   28.9702     61.79     61.68    -28.54     20.00
   28.9804     59.05     61.36    -30.96     20.00
   28.9905     60.54     61.05    -29.15     20.00
   29.0007     60.71     60.73    -28.66     20.00
   29.0108     58.74     60.41    -30.32     20.00
   29.0210     57.68     60.09    -31.06     20.00
   29.0312     58.68     59.77    -29.74     20.00
   29.0413     57.31     59.46    -30.79     20.00
   29.0515     57.04     59.14    -30.74     20.00
   29.0617     58.36     58.82    -29.11     20.00
   29.0718     57.59     58.51    -29.56     20.00
   29.0820     56.73     58.19    -30.11     20.00
   29.0922     55.86     57.88    -30.66     20.00
   29.1023     56.62     57.57    -29.59     20.00
   29.1125     55.71     57.26    -30.19     20.00
   29.1227     54.12     56.95    -31.47     20.00
   29.1328     54.54     56.64    -30.75     20.00
   29.1430     54.22     56.34    -30.76     20.00
   29.1531     54.94     56.04    -29.74     20.00
   29.1633     54.02     55.74    -30.36     20.00
   29.1735     53.68     55.44    -30.40     20.00
   29.1836     52.76     55.14    -31.03     20.00
   29.1938     52.99     54.85    -30.51     20.00
   29.2040     52.70     54.56    -30.51     20.00
   29.2141     52.40     54.27    -30.52     20.00
   29.2243     53.12     53.99    -29.51     20.00
   29.2345     52.30     53.70    -30.05     20.00
   29.2446     51.84     53.43    -30.23     20.00
   29.2548     52.24     53.15    -29.55     20.00
   29.2650     53.11     52.87    -28.41     20.00
   29.2751     50.76     52.61    -30.49     20.00
   29.2853     50.05     52.34    -30.93     20.00
   29.2955     51.93     52.07    -28.79     20.00
   29.3056     50.40     51.81    -30.06     20.00
   29.3158     49.29     51.55    -30.91     20.00
   29.3259     49.85     51.30    -30.10     20.00
   29.3361     50.38     51.05    -29.31     20.00
   29.3463     49.80     50.80    -29.64     20.00
   29.3564     50.48     50.56    -28.72     20.00
   29.3666     49.76     50.31    -29.20     20.00
   29.3768     49.59     50.07    -29.13     20.00
   29.3869     49.12     49.84    -29.37     20.00
   29.3971     48.84     49.61    -29.41     20.00
   29.4073     48.31     49.38    -29.71     20.00
   29.4174     48.21     49.15    -29.59     20.00
   29.4276     48.26     48.93    -29.32     20.00
   29.4378     48.40     48.71    -28.96     20.00
   29.4479     47.61     48.50    -29.54     20.00
   29.4581     48.46     48.29    -28.47     20.00
   29.4682     47.06     48.08    -29.67     20.00
   29.4784     47.90     47.88    -28.62     20.00
   29.4886     47.13     47.67    -29.19     20.00
   29.4987     46.13     47.48    -29.99     20.00
   29.5089     46.15     47.28    -29.78     20.00
   29.5191     46.57     47.09    -29.17     20.00
   29.5292     46.87     46.90    -28.68     20.00
   29.5394     46.38     46.72    -28.98     20.00
   29.5496     46.82     46.53    -28.36     20.00
   29.5597     45.23     46.36    -29.77     20.00
   29.5699     46.24     46.18    -28.59     20.00
   29.5801     46.95     46.01    -27.70     20.00
   29.5902     45.54     45.84    -28.95     20.00
   29.6004     45.30     45.67    -29.02     20.00
   29.6106     46.56     45.51    -27.60     20.00
   29.6207     46.10     45.35    -27.90     20.00
   29.6309     43.57     45.19    -30.27     20.00
   29.6410     45.16     45.04    -28.53     20.00
   29.6512     44.54     44.89    -28.99     20.00
   29.6614     45.20     44.74    -28.18     20.00
   29.6715     44.87     44.59    -28.37     20.00
   29.6817     44.23     44.45    -28.87     20.00
   29.6919     44.19     44.31    -28.76     20.00
   29.7020     44.86     44.17    -27.96     20.00
   29.7122     43.38     44.04    -29.30     20.00
   29.7224     44.38     43.90    -28.17     20.00
   29.7325     43.66     43.77    -28.76     20.00
   29.7427     44.35     43.64    -27.94     20.00
   29.7529     43.70     43.52    -28.47     20.00
   29.7630     43.30     43.40    -28.74     20.00
   29.7732     43.01     43.28    -28.91     20.00
   29.7833     43.49     43.16    -28.31     20.00
   29.7935     43.90     43.04    -27.79     20.00
   29.8037     42.98     42.93    -28.59     20.00
   29.8138     43.00     42.82    -28.46     20.00
   29.8240     43.53     42.71    -27.82     20.00
   29.8342     43.27     42.60    -27.97     20.00
   29.8443     43.48     42.49    -27.66     20.00
   29.8545     43.38     42.39    -27.65     20.00
   29.8647     42.79     42.29    -28.14     20.00
   29.8748     43.08     42.19    -27.75     20.00
   29.8850     43.30     42.09    -27.43     20.00
   29.8952     43.45     41.99    -27.19     20.00
   29.9053     42.76     41.90    -27.78     20.00
   29.9155     42.46     41.80    -27.99     20.00
   29.9257     42.52     41.71    -27.84     20.00
   29.9358     42.48     41.62    -27.79     20.00
   29.9460     43.21     41.53    -26.97     20.00
   29.9561     43.11     41.44    -26.98     20.00
   29.9663     42.66     41.36    -27.34     20.00
   29.9765     42.51     41.27    -27.41     20.00
   29.9866     42.20     41.19    -27.64     20.00
   29.9968     42.99     41.11    -26.76     20.00
   30.0070     43.20     41.03    -26.47     20.00
   30.0171     42.54     40.95    -27.05     20.00
   30.0273     43.04     40.87    -26.47     20.00
   30.0375     42.38     40.79    -27.06     20.00
   30.0476     41.55     40.71    -27.81     20.00
   30.0578     42.46     40.64    -26.82     20.00
   30.0680     42.10     40.56    -27.11     20.00
   30.0781     42.42     40.49    -26.72     20.00
   30.0883     42.77     40.42    -26.29     20.00
   30.0984     41.92     40.35    -27.07     20.00
   30.1086     42.37     40.28    -26.55     20.00
   30.1188     41.65     40.21    -27.20     20.00
   30.1289     41.83     40.14    -26.95     20.00
   30.1391     41.46     40.07    -27.25     20.00
   30.1493     41.76     40.00    -26.89     20.00
   30.1594     41.87     39.93    -26.71     20.00
   30.1696     40.71     39.87    -27.80     20.00
   30.1798     40.82     39.80    -27.63     20.00
   30.1899     40.77     39.74    -27.61     20.00
   30.2001     40.99     39.67    -27.33     20.00
   30.2103     40.30     39.61    -27.95     20.00
   30.2204     41.34     39.54    -26.85     20.00
   30.2306     41.04     39.48    -27.09     20.00
   30.2408     40.33     39.42    -27.73     20.00
   30.2509     40.54     39.35    -27.46     20.00
   30.2611     40.45     39.29    -27.49     20.00
   30.2712     40.35     39.23    -27.53     20.00
   30.2814     40.37     39.17    -27.45     20.00
   30.2916     40.42     39.11    -27.34     20.00
   30.3017     40.04     39.05    -27.66     20.00
   30.3119     40.39     38.99    -27.25     20.00
   30.3221     40.31     38.93    -27.27     20.00
   30.3322     39.13     38.87    -28.39     20.00
   30.3424     39.31     38.81    -28.15     20.00
   30.3526     39.03     38.75    -28.37     20.00
   30.3627     38.95     38.69    -28.39     20.00
   30.3729     39.51     38.64    -27.77     20.00
   30.3831     38.62     38.58    -28.60     20.00
   30.3932     39.40     38.52    -27.77     20.00
   30.4034     38.61     38.46    -28.50     20.00
   30.4135     37.69     38.40    -29.36     20.00
   30.4237     38.87     38.35    -28.12     20.00
   30.4339     38.07     38.29    -28.87     20.00
   30.4440     37.60     38.23    -29.28     20.00
   30.4542     38.31     38.18    -28.51     20.00
   30.4644     38.14     38.12    -28.63     20.00
   30.4745     38.12     38.06    -28.59     20.00
   30.4847     37.95     38.01    -28.70     20.00
   30.4949     37.54     37.95    -29.06     20.00
   30.5050     37.41     37.90    -29.13     20.00
   30.5152     37.66     37.84    -28.83     20.00
   30.5254     38.09     37.78    -28.34     20.00
   30.5355     37.60     37.73    -28.77     20.00
   30.5457     37.54     37.67    -28.78     20.00
   30.5559     37.90     37.62    -28.36     20.00
   30.5660     37.60     37.56    -28.61     20.00
   30.5762     37.16     37.51    -28.99     20.00
   30.5863     37.37     37.45    -28.73     20.00
   30.5965     36.41     37.40    -29.63     20.00
   30.6067     36.48     37.34    -29.51     20.00
   30.6168     36.85     37.29    -29.08     20.00
   30.6270     36.86     37.23    -29.02     20.00
   30.6372     36.09     37.18    -29.74     20.00
   30.6473     36.18     37.13    -29.59     20.00
   30.6575     36.76     37.07    -28.96     20.00
   30.6677     35.27     37.02    -30.39     20.00
   30.6778     35.73     36.96    -29.88     20.00
   30.6880     36.08     36.91    -29.48     20.00
   30.6982     35.02     36.86    -30.48     20.00
   30.7083     36.15     36.80    -29.30     20.00
   30.7185     36.34     36.75    -29.06     20.00
   30.7286     35.15     36.70    -30.19     20.00
   30.7388     36.26     36.64    -29.03     20.00
   30.7490     36.20     36.59    -29.04     20.00
   30.7591     34.84     36.54    -30.34     20.00
   30.7693     35.96     36.48    -29.17     20.00
   30.7795     34.93     36.43    -30.15     20.00
   30.7896     35.88     36.38    -29.15     20.00
   30.7998     36.20     36.33    -28.77     20.00
   30.8100     34.97     36.28    -29.95     20.00
   30.8201     35.57     36.22    -29.30     20.00
   30.8303     36.29     36.17    -28.53     20.00
   30.8405     35.49     36.12    -29.28     20.00
   30.8506     35.16     36.07    -29.56     20.00
   30.8608     35.91     36.02    -28.76     20.00
   30.8710     35.18     35.97    -29.43     20.00
   30.8811     35.11     35.92    -29.45     20.00
   30.8913     35.63     35.87    -28.88     20.00
   30.9014     34.79     35.82    -29.67     20.00
   30.9116     34.73     35.77    -29.68     20.00
   30.9218     34.48     35.72    -29.88     20.00
   30.9319     34.31     35.67    -30.00     20.00
   30.9421     34.79     35.62    -29.47     20.00
   30.9523     35.46     35.57    -28.76     20.00
   30.9624     33.74     35.52    -30.43     20.00
   30.9726     34.67     35.47    -29.45     20.00
   30.9828     34.12     35.42    -29.95     20.00
   30.9929     34.43     35.38    -29.59     20.00
   31.0031     33.70     35.33    -30.27     20.00
   31.0133     34.09     35.28    -29.84     20.00
   31.0234     34.51     35.23    -29.37     20.00
   31.0336     34.32     35.18    -29.51     20.00
   31.0437     34.73     35.14    -29.05     20.00
   31.0539     33.87     35.09    -29.87     20.00
   31.0641     33.99     35.05    -29.70     20.00
   31.0742     34.41     35.00    -29.24     20.00
   31.0844     34.62     34.95    -28.98     20.00
   31.0946     33.66     34.91    -29.89     20.00
   31.1047     33.68     34.86    -29.83     20.00
   31.1149     33.68     34.82    -29.78     20.00
   31.1251     33.76     34.77    -29.66     20.00
   31.1352     34.34     34.73    -29.03     20.00
   31.1454     33.54     34.68    -29.79     20.00
   31.1556     33.40     34.64    -29.89     20.00
   31.1657     33.96     34.60    -29.28     20.00
   31.1759     34.65     34.55    -28.55     20.00
   31.1860     33.77     34.51    -29.39     20.00
   31.1962     33.62     34.47    -29.50     20.00
   31.2064     32.30     34.43    -30.77     20.00
   31.2165     32.99     34.39    -30.04     20.00
   31.2267     33.59     34.34    -29.40     20.00
   31.2369     33.32     34.30    -29.63     20.00
   31.2470     33.28     34.26    -29.63     20.00
   31.2572     33.96     34.22    -28.91     20.00
   31.2674     32.67     34.18    -30.16     20.00
   31.2775     32.97     34.14    -29.82     20.00
   31.2877     32.77     34.10    -29.98     20.00
   31.2979     32.98     34.06    -29.73     20.00
   31.3080     33.48     34.02    -29.19     20.00
   31.3182     33.32     33.99    -29.31     20.00
   31.3284     33.13     33.95    -29.46     20.00
   31.3385     32.62     33.91    -29.94     20.00
   31.3487     33.84     33.87    -28.68     20.00
   31.3588     32.26     33.84    -30.22     20.00
   31.3690     33.00     33.80    -29.45     20.00
   31.3792     33.51     33.76    -28.90     20.00
   31.3893     32.68     33.73    -29.69     20.00
   31.3995     32.56     33.69    -29.78     20.00
   31.4097     33.24     33.66    -29.06     20.00
   31.4198     32.96     33.62    -29.31     20.00
   31.4300     32.59     33.59    -29.64     20.00
   31.4402     32.95     33.55    -29.25     20.00
   31.4503     32.93     33.52    -29.24     20.00
   31.4605     32.49     33.49    -29.64     20.00
   31.4707     32.74     33.45    -29.36     20.00
   31.4808     32.58     33.42    -29.49     20.00
   31.4910     32.81     33.39    -29.23     20.00
   31.5011     32.40     33.36    -29.60     20.00
   31.5113     32.17     33.33    -29.80     20.00
   31.5215     33.41     33.30    -28.53     20.00
   31.5316     32.90     33.27    -29.01     20.00
   31.5418     32.86     33.24    -29.02     20.00
   31.5520     32.43     33.21    -29.42     20.00
   31.5621     33.95     33.18    -27.87     20.00
   31.5723     32.45     33.15    -29.34     20.00
   31.5825     33.16     33.12    -28.61     20.00
   31.5926     32.18     33.09    -29.56     20.00
   31.6028     32.95     33.06    -28.76     20.00
   31.6130     32.46     33.04    -29.22     20.00
   31.6231     32.30     33.01    -29.36     20.00
   31.6333     31.90     32.98    -29.73     20.00
   31.6435     32.38     32.96    -29.22     20.00
   31.6536     32.60     32.93    -28.98     20.00
   31.6638     32.01     32.91    -29.54     20.00
   31.6739     32.66     32.88    -28.87     20.00
   31.6841     32.75     32.86    -28.75     20.00
   31.6943     32.09     32.83    -29.39     20.00
   31.7044     32.51     32.81    -28.94     20.00
   31.7146     33.43     32.78    -28.00     20.00
   31.7248     32.95     32.76    -28.46     20.00
   31.7349     32.18     32.74    -29.20     20.00
   31.7451     32.59     32.72    -28.77     20.00
   31.7553     31.96     32.69    -29.38     20.00
   31.7654     32.25     32.67    -29.07     20.00
   31.7756     32.99     32.65    -28.31     20.00
   31.7858     32.26     32.63    -29.02     20.00
   31.7959     32.08     32.61    -29.18     20.00
   31.8061     33.21     32.59    -28.03     20.00
   31.8162     32.39     32.57    -28.83     20.00
   31.8264     32.89     32.55    -28.31     20.00
   31.8366     33.99     32.53    -27.19     20.00
   31.8467     33.21     32.51    -27.95     20.00
   31.8569     31.38     32.50    -29.76     20.00
   31.8671     33.23     32.48    -27.89     20.00
   31.8772     32.18     32.46    -28.93     20.00
   31.8874     32.55     32.44    -28.54     20.00
   31.8976     32.49     32.43    -28.58     20.00
   31.9077     32.73     32.41    -28.33     20.00
   31.9179     32.29     32.40    -28.75     20.00
   31.9281     32.80     32.38    -28.23     20.00
   31.9382     33.05     32.36    -27.96     20.00
   31.9484     31.96     32.35    -29.04     20.00
   31.9586     32.19     32.34    -28.79     20.00
   31.9687     31.83     32.32    -29.14     20.00
   31.9789     32.32     32.31    -28.63     20.00
   31.9890     33.33     32.29    -27.61     20.00
   31.9992     32.31     32.28    -28.62     20.00
   32.0094     32.38     32.27    -28.53     20.00
   32.0195     32.29     32.26    -28.61     20.00
   32.0297     31.90     32.24    -28.99     20.00
   32.0399     32.52     32.23    -28.36     20.00
   32.0500     33.28     32.22    -27.59     20.00
   32.0602     31.95     32.21    -28.90     20.00
   32.0704     32.98     32.20    -27.86     20.00
   32.0805     32.86     32.19    -27.97     20.00
   32.0907     32.27     32.18    -28.55     20.00
   32.1009     32.80     32.17    -28.01     20.00
   32.1110     32.95     32.16    -27.85     20.00
   32.1212     31.60     32.15    -29.19     20.00
   32.1313     33.12     32.14    -27.67     20.00
   32.1415     33.48     32.13    -27.30     20.00
   32.1517     32.95     32.12    -27.82     20.00
   32.1618     32.96     32.11    -27.80     20.00
   32.1720     33.35     32.11    -27.40     20.00
   32.1822     33.23     32.10    -27.51     20.00
   32.1923     32.38     32.09    -28.36     20.00
   32.2025     33.55     32.08    -27.18     20.00
   32.2127     32.49     32.08    -28.23     20.00
   32.2228     33.20     32.07    -27.52     20.00
   32.2330     32.65     32.06    -28.06     20.00
   32.2432     33.26     32.06    -27.44     20.00
   32.2533     33.81     32.05    -26.89     20.00
   32.2635     33.29     32.05    -27.40     20.00
   32.2737     32.67     32.04    -28.02     20.00
   32.2838     33.05     32.04    -27.63     20.00
   32.2940     32.55     32.03    -28.13     20.00
   32.3041     32.69     32.03    -27.98     20.00
   32.3143     33.05     32.02    -27.62     20.00
   32.3245     33.21     32.02    -27.45     20.00
   32.3346     32.74     32.01    -27.92     20.00
   32.3448     32.66     32.01    -28.00     20.00
   32.3550     32.90     32.01    -27.75     20.00
   32.3651     32.72     32.00    -27.93     20.00
   32.3753     33.07     32.00    -27.58     20.00
   32.3855     33.23     32.00    -27.41     20.00
   32.3956     32.63     31.99    -28.01     20.00
   32.4058     32.57     31.99    -28.07     20.00
   32.4160     33.56     31.99    -27.07     20.00
   32.4261     33.18     31.99    -27.45     20.00
   32.4363     33.93     31.98    -26.70     20.00
   32.4464     32.97     31.98    -27.66     20.00
   32.4566     32.99     31.98    -27.63     20.00
   32.4668     33.10     31.98    -27.52     20.00
   32.4769     33.23     31.97    -27.39     20.00
   32.4871     33.69     31.97    -26.93     20.00
   32.4973     33.16     31.97    -27.46     20.00
   32.5074     34.48     31.97    -26.14     20.00
   32.5176     33.18     31.97    -27.43     20.00
   32.5278     32.55     31.97    -28.06     20.00
   32.5379     32.92     31.96    -27.69     20.00
   32.5481     32.86     31.96    -27.75     20.00
   32.5583     32.91     31.96    -27.70     20.00
   32.5684     33.24     31.96    -27.37     20.00
   32.5786     32.59     31.96    -28.02     20.00
   32.5888     33.42     31.96    -27.18     20.00
   32.5989     33.14     31.96    -27.46     20.00
   32.6091     33.21     31.96    -27.39     20.00
   32.6192     33.16     31.95    -27.44     20.00
   32.6294     32.96     31.95    -27.64     20.00
   32.6396     33.14     31.95    -27.46     20.00
   32.6497     33.45     31.95    -27.15     20.00
   32.6599     32.16     31.95    -28.44     20.00
   32.6701     32.54     31.95    -28.05     20.00
   32.6802     33.65     31.95    -26.94     20.00
   32.6904     32.69     31.95    -27.90     20.00
   32.7006     32.41     31.94    -28.18     20.00
   32.7107     32.40     31.94    -28.19     20.00
   32.7209     33.49     31.94    -27.10     20.00
   32.7311     32.37     31.94    -28.22     20.00
   32.7412     33.27     31.94    -27.31     20.00
   32.7514     32.65     31.94    -27.93     20.00
   32.7615     32.96     31.93    -27.62     20.00
   32.7717     32.54     31.93    -28.04     20.00
   32.7819     33.35     31.93    -27.23     20.00
   32.7920     32.63     31.93    -27.94     20.00
   32.8022     32.89     31.93    -27.68     20.00
   32.8124     32.74     31.92    -27.83     20.00
   32.8225     32.87     31.92    -27.70     20.00
   32.8327     32.61     31.92    -27.95     20.00
   32.8429     32.46     31.91    -28.10     20.00
   32.8530     32.30     31.91    -28.26     20.00
   32.8632     34.38     31.91    -26.17     20.00
   32.8734     32.32     31.90    -28.23     20.00
   32.8835     33.01     31.90    -27.54     20.00
   32.8937     33.27     31.90    -27.27     20.00
   32.9039     32.74     31.89    -27.80     20.00
   32.9140     32.68     31.89    -27.85     20.00
   32.9242     32.53     31.88    -28.00     20.00
   32.9343     32.98     31.88    -27.54     20.00
   32.9445     31.74     31.87    -28.78     20.00
   32.9547     32.73     31.87    -27.78     20.00
   32.9648     32.79     31.86    -27.72     20.00
   32.9750     32.31     31.86    -28.19     20.00
   32.9852     32.89     31.85    -27.61     20.00
   32.9953     32.63     31.84    -27.86     20.00
   33.0055     32.52     31.84    -27.96     20.00
   33.0157     33.51     31.83    -26.97     20.00
   33.0258     33.78     31.82    -26.69     20.00
   33.0360     32.99     31.81    -27.47     20.00
   33.0462     32.70     31.81    -27.75     20.00
   33.0563     33.71     31.80    -26.73     20.00
   33.0665     32.94     31.79    -27.50     20.00
   33.0766     32.84     31.78    -27.59     20.00
   33.0868     32.63     31.77    -27.79     20.00
   33.0970     33.18     31.76    -27.23     20.00
   33.1071     32.45     31.75    -27.95     20.00
   33.1173     33.13     31.74    -27.26     20.00
   33.1275     32.84     31.73    -27.54     20.00
   33.1376     32.69     31.72    -27.68     20.00
   33.1478     33.85     31.71    -26.51     20.00
   33.1580     34.32     31.70    -26.02     20.00
   33.1681     32.56     31.69    -27.77     20.00
   33.1783     33.05     31.67    -27.27     20.00
   33.1885     32.29     31.66    -28.02     20.00
   33.1986     33.57     31.65    -26.72     20.00
   33.2088     33.70     31.63    -26.58     20.00
   33.2189     33.94     31.62    -26.33     20.00
   33.2291     32.33     31.61    -27.92     20.00
   33.2393     33.51     31.59    -26.73     20.00
   33.2494     33.01     31.58    -27.21     20.00
   33.2596     33.54     31.56    -26.67     20.00
   33.2698     33.21     31.55    -26.98     20.00
   33.2799     32.40     31.53    -27.78     20.00
   33.2901     32.89     31.51    -27.27     20.00
   33.3003     33.36     31.50    -26.78     20.00
   33.3104     33.01     31.48    -27.12     20.00
   33.3206     33.37     31.46    -26.74     20.00
   33.3308     33.32     31.45    -26.77     20.00
   33.3409     33.26     31.43    -26.81     20.00
   33.3511     32.81     31.41    -27.24     20.00
   33.3613     33.20     31.39    -26.84     20.00
   33.3714     33.01     31.37    -27.01     20.00
   33.3816     33.80     31.35    -26.20     20.00
   33.3917     33.26     31.33    -26.72     20.00
   33.4019     33.74     31.31    -26.22     20.00
   33.4121     33.46     31.29    -26.47     20.00
   33.4222     33.05     31.27    -26.86     20.00
   33.4324     32.99     31.25    -26.90     20.00
   33.4426     32.90     31.22    -26.97     20.00
   33.4527     32.70     31.20    -27.15     20.00
   33.4629     33.16     31.18    -26.66     20.00
   33.4731     32.95     31.16    -26.85     20.00
   33.4832     32.23     31.13    -27.55     20.00
   33.4934     32.10     31.11    -27.65     20.00
   33.5036     32.69     31.08    -27.04     20.00
   33.5137     32.41     31.06    -27.30     20.00
   33.5239     32.22     31.04    -27.46     20.00
   33.5340     32.33     31.01    -27.33     20.00
   33.5442     31.91     30.98    -27.72     20.00
   33.5544     31.97     30.96    -27.63     20.00
   33.5645     32.49     30.93    -27.09     20.00
   33.5747     32.71     30.91    -26.84     20.00
   33.5849     31.72     30.88    -27.81     20.00
   33.5950     32.09     30.85    -27.41     20.00
   33.6052     31.69     30.83    -27.78     20.00
   33.6154     31.65     30.80    -27.79     20.00
   33.6255     31.38     30.77    -28.04     20.00
   33.6357     30.85     30.74    -28.54     20.00
   33.6459     31.89     30.71    -27.47     20.00
   33.6560     31.48     30.69    -27.85     20.00
   33.6662     31.59     30.66    -27.71     20.00
   33.6764     31.32     30.63    -27.95     20.00
   33.6865     31.38     30.60    -27.86     20.00
   33.6967     30.20     30.57    -29.01     20.00
   33.7068     31.20     30.54    -27.98     20.00
   33.7170     30.87     30.51    -28.28     20.00
   33.7272     30.45     30.48    -28.67     20.00
   33.7373     30.84     30.45    -28.25     20.00
   33.7475     30.48     30.42    -28.58     20.00
   33.7577     30.22     30.38    -28.81     20.00
   33.7678     30.21     30.35    -28.79     20.00
   33.7780     30.13     30.32    -28.84     20.00
   33.7882     30.30     30.29    -28.64     20.00
   33.7983     29.10     30.26    -29.80     20.00
   33.8085     29.58     30.23    -29.29     20.00
   33.8187     29.15     30.19    -29.69     20.00
   33.8288     29.57     30.16    -29.24     20.00
   33.8390     29.28     30.13    -29.49     20.00
   33.8491     29.77     30.10    -28.97     20.00
   33.8593     29.15     30.06    -29.56     20.00
   33.8695     28.56     30.03    -30.12     20.00
   33.8796     29.39     30.00    -29.25     20.00
   33.8898     28.73     29.96    -29.88     20.00
   33.9000     28.90     29.93    -29.68     20.00
   33.9101     29.05     29.90    -29.49     20.00
   33.9203     29.44     29.86    -29.07     20.00
   33.9305     29.09     29.83    -29.38     20.00
   33.9406     28.27     29.80    -30.17     20.00
   33.9508     28.90     29.76    -29.51     20.00
   33.9610     28.71     29.73    -29.66     20.00
   33.9711     28.84     29.69    -29.50     20.00
   33.9813     28.95     29.66    -29.35     20.00
   33.9915     28.33     29.62    -29.94     20.00
   34.0016     28.23     29.59    -30.01     20.00
   34.0118     28.27     29.55    -29.93     20.00
   34.0219     28.01     29.52    -30.16     20.00
   34.0321     27.17     29.49    -30.96     20.00
   34.0423     28.33     29.45    -29.77     20.00
   34.0524     27.95     29.42    -30.11     20.00
   34.0626     27.80     29.38    -30.23     20.00
   34.0728     28.11     29.35    -29.88     20.00
   34.0829     27.74     29.31    -30.22     20.00
   34.0931     27.87     29.28    -30.05     20.00
   34.1033     27.32     29.24    -30.57     20.00
   34.1134     27.86     29.21    -29.99     20.00
   34.1236     28.09     29.17    -29.73     20.00
   34.1338     28.05     29.14    -29.73     20.00
   34.1439     27.01     29.10    -30.74     20.00
   34.1541     27.42     29.07    -30.29     20.00
   34.1642     26.82     29.03    -30.86     20.00
   34.1744     27.82     29.00    -29.82     20.00
   34.1846     28.01     28.96    -29.60     20.00
   34.1947     27.48     28.93    -30.09     20.00
   34.2049     27.60     28.89    -29.94     20.00
   34.2151     27.70     28.86    -29.80     20.00
   34.2252     27.55     28.82    -29.92     20.00
   34.2354     26.76     28.79    -30.67     20.00
   34.2456     27.31     28.75    -30.09     20.00
   34.2557     25.75     28.72    -31.61     20.00
   34.2659     27.23     28.68    -30.10     20.00
   34.2761     27.34     28.65    -29.95     20.00
   34.2862     26.79     28.61    -30.47     20.00
   34.2964     27.96     28.58    -29.26     20.00
   34.3066     26.45     28.54    -30.74     20.00
   34.3167     26.88     28.51    -30.27     20.00
   34.3269     26.23     28.47    -30.89     20.00
   34.3370     27.04     28.44    -30.04     20.00
   34.3472     27.15     28.40    -29.90     20.00
   34.3574     26.52     28.37    -30.50     20.00
   34.3675     26.96     28.34    -30.02     20.00
   34.3777     25.93     28.30    -31.02     20.00
   34.3879     25.76     28.27    -31.15     20.00
   34.3980     26.06     28.23    -30.82     20.00
   34.4082     26.00     28.20    -30.84     20.00
   34.4184     26.49     28.16    -30.32     20.00
   34.4285     26.70     28.13    -30.08     20.00
   34.4387     25.83     28.10    -30.91     20.00
   34.4489     25.93     28.06    -30.78     20.00
   34.4590     26.46     28.03    -30.22     20.00
   34.4692     26.20     28.00    -30.44     20.00
   34.4793     25.96     27.96    -30.65     20.00
   34.4895     26.51     27.93    -30.07     20.00
   34.4997     25.56     27.90    -30.98     20.00
   34.5098     26.34     27.86    -30.17     20.00
   34.5200     26.16     27.83    -30.32     20.00
   34.5302     25.48     27.80    -30.96     20.00
   34.5403     25.62     27.77    -30.79     20.00
   34.5505     26.57     27.73    -29.81     20.00
   34.5607     26.27     27.70    -30.08     20.00
   34.5708     26.20     27.67    -30.11     20.00
   34.5810     25.55     27.64    -30.73     20.00
   34.5912     25.65     27.60    -30.60     20.00
   34.6013     26.07     27.57    -30.15     20.00
   34.6115     25.34     27.54    -30.85     20.00
   34.6217     25.58     27.51    -30.57     20.00
   34.6318     25.52     27.48    -30.60     20.00
   34.6420     25.80     27.44    -30.29     20.00
   34.6521     25.58     27.41    -30.48     20.00
   34.6623     25.90     27.38    -30.13     20.00
   34.6725     26.06     27.35    -29.94     20.00
   34.6826     26.57     27.32    -29.40     20.00
   34.6928     25.14     27.29    -30.80     20.00
   34.7030     25.41     27.26    -30.49     20.00
   34.7131     25.97     27.23    -29.90     20.00
   34.7233     25.29     27.20    -30.55     20.00
   34.7335     26.37     27.17    -29.44     20.00
   34.7436     25.67     27.14    -30.11     20.00
   34.7538     25.84     27.11    -29.91     20.00
   34.7640     25.41     27.08    -30.31     20.00
   34.7741     26.27     27.05    -29.42     20.00
   34.7843     25.98     27.02    -29.68     20.00
   34.7944     25.73     26.99    -29.90     20.00
   34.8046     25.36     26.96    -30.25     20.00
   34.8148     25.90     26.93    -29.68     20.00
   34.8249     25.62     26.90    -29.93     20.00
   34.8351     25.91     26.87    -29.61     20.00
   34.8453     25.17     26.84    -30.32     20.00
   34.8554     26.03     26.82    -29.43     20.00
   34.8656     25.64     26.79    -29.79     20.00
   34.8758     25.85     26.76    -29.55     20.00
   34.8859     25.45     26.73    -29.93     20.00
   34.8961     26.36     26.70    -28.99     20.00
   34.9063     25.82     26.67    -29.50     20.00
   34.9164     24.68     26.65    -30.61     20.00
   34.9266     25.63     26.62    -29.64     20.00
   34.9367     25.73     26.59    -29.51     20.00
   34.9469     25.21     26.57    -30.00     20.00
   34.9571     25.95     26.54    -29.23     20.00
   34.9672     24.79     26.51    -30.37     20.00
   34.9774     25.18     26.49    -29.95     20.00
   34.9876     25.22     26.46    -29.88     20.00
   34.9977     25.23     26.43    -29.85     20.00
   35.0079     25.38     26.41    -29.67     20.00
   35.0181     25.19     26.38    -29.84     20.00
   35.0282     25.16     26.35    -29.84     20.00
   35.0384     25.77     26.33    -29.20     20.00
   35.0486     25.67     26.30    -29.28     20.00
   35.0587     24.98     26.28    -29.94     20.00
   35.0689     25.15     26.25    -29.75     20.00
   35.0791     24.70     26.23    -30.17     20.00
   35.0892     25.59     26.20    -29.26     20.00
   35.0994     25.13     26.18    -29.69     20.00
   35.1095     25.51     26.15    -29.29     20.00
   35.1197     25.77     26.13    -29.00     20.00
   35.1299     25.15     26.10    -29.60     20.00
   35.1400     25.69     26.08    -29.04     20.00
   35.1502     25.30     26.06    -29.40     20.00
   35.1604     25.18     26.03    -29.50     20.00
   35.1705     25.28     26.01    -29.37     20.00
   35.1807     25.08     25.99    -29.55     20.00
   35.1909     24.96     25.96    -29.65     20.00
   35.2010     25.23     25.94    -29.35     20.00
   35.2112     24.99     25.92    -29.57     20.00
   35.2214     26.27     25.89    -28.27     20.00
   35.2315     24.66     25.87    -29.86     20.00
   35.2417     24.84     25.85    -29.65     20.00
   35.2518     25.16     25.83    -29.31     20.00
   35.2620     24.85     25.80    -29.60     20.00
   35.2722     24.63     25.78    -29.80     20.00
   35.2823     25.13     25.76    -29.28     20.00
   35.2925     25.01     25.74    -29.37     20.00
   35.3027     25.32     25.72    -29.04     20.00
   35.3128     24.90     25.69    -29.44     20.00
   35.3230     24.96     25.67    -29.36     20.00
   35.3332     24.70     25.65    -29.60     20.00
   35.3433     25.65     25.63    -28.63     20.00
   35.3535     24.88     25.61    -29.38     20.00
   35.3637     25.09     25.59    -29.15     20.00
   35.3738     24.34     25.57    -29.88     20.00
   35.3840     25.13     25.55    -29.06     20.00
   35.3942     24.77     25.53    -29.40     20.00
   35.4043     24.65     25.51    -29.50     20.00
   35.4145     25.01     25.49    -29.12     20.00
   35.4246     24.60     25.47    -29.51     20.00
   35.4348     24.57     25.45    -29.52     20.00
   35.4450     24.22     25.43    -29.86     20.00
   35.4551     24.62     25.41    -29.44     20.00
   35.4653     24.48     25.39    -29.56     20.00
   35.4755     24.37     25.37    -29.65     20.00
   35.4856     23.95     25.35    -30.05     20.00
   35.4958     24.30     25.33    -29.68     20.00
   35.5060     24.83     25.32    -29.13     20.00
   35.5161     24.52     25.30    -29.42     20.00
   35.5263     24.62     25.28    -29.30     20.00
   35.5365     24.38     25.26    -29.53     20.00
   35.5466     24.10     25.24    -29.79     20.00
   35.5568     24.54     25.22    -29.33     20.00
   35.5669     24.23     25.21    -29.62     20.00
   35.5771     24.66     25.19    -29.18     20.00
   35.5873     24.66     25.17    -29.16     20.00
   35.5974     24.55     25.15    -29.25     20.00
   35.6076     25.00     25.14    -28.78     20.00
   35.6178     24.05     25.12    -29.72     20.00
   35.6279     24.66     25.10    -29.09     20.00
   35.6381     24.48     25.09    -29.25     20.00
   35.6483     24.80     25.07    -28.92     20.00
   35.6584     24.65     25.05    -29.05     20.00
   35.6686     24.81     25.04    -28.87     20.00
   35.6788     24.86     25.02    -28.81     20.00
   35.6889     24.73     25.00    -28.92     20.00
   35.6991     24.35     24.99    -29.28     20.00
   35.7093     24.54     24.97    -29.08     20.00
   35.7194     23.90     24.96    -29.70     20.00
   35.7296     24.46     24.94    -29.13     20.00
   35.7397     24.16     24.93    -29.41     20.00
   35.7499     24.41     24.91    -29.15     20.00
   35.7601     24.98     24.89    -28.56     20.00
   35.7702     24.05     24.88    -29.48     20.00
   35.7804     24.90     24.86    -28.61     20.00
   35.7906     24.31     24.85    -29.19     20.00
   35.8007     25.00     24.83    -28.48     20.00
   35.8109     24.73     24.82    -28.74     20.00
   35.8211     24.38     24.81    -29.07     20.00
   35.8312     24.96     24.79    -28.48     20.00
   35.8414     24.91     24.78    -28.51     20.00
   35.8516     24.66     24.76    -28.75     20.00
   35.8617     23.78     24.75    -29.61     20.00
   35.8719     24.24     24.73    -29.14     20.00
   35.8820     24.34     24.72    -29.03     20.00
   35.8922     24.82     24.71    -28.53     20.00
   35.9024     24.30     24.69    -29.04     20.00
   35.9125     24.07     24.68    -29.26     20.00
   35.9227     23.93     24.67    -29.38     20.00
   35.9329     24.80     24.65    -28.50     20.00
   35.9430     24.54     24.64    -28.75     20.00
   35.9532     24.88     24.63    -28.39     20.00
   35.9634     24.52     24.61    -28.74     20.00
   35.9735     24.09     24.60    -29.16     20.00
   35.9837     24.15     24.59    -29.08     20.00
   35.9939     24.21     24.57    -29.01     20.00
