 => TITLE: 
 => Data file name: C:\Users\stefano\Nextcloud2\projects\programming\python\xrd-winplotr\folder\G109\G109--5-40-0.01-1000ms.xy
 => Instrm        :    1
 => Lambda(1&2)   :   1.54060  1.54060
 => Numb.of.points:      2946
 => Numb.of.peaks :         8
    2Theta     Yobs     Ycalc  Yobs-Ycal    Backg    Bragg     Posr  Intensity   FWHM    Eta
    6.1001     23.37     23.67    -26.94     18.74   18.6038     -2.17     175.86  0.8343  0.5000
    6.1102     23.27     23.68    -27.04     18.74   20.4241     -2.17     111.84  1.6501  0.5000
    6.1204     23.74     23.69    -26.58     18.74   22.4676     -2.17     132.17  1.1450  0.5000
    6.1306     23.32     23.70    -27.01     18.74   28.4983     -2.17      49.37  1.1521  0.5000
    6.1407     23.32     23.70    -27.02     18.74   30.1431     -2.17      23.01  2.1221  0.5000
    6.1509     23.43     23.71    -26.92     18.74   33.3281     -2.17      35.58  3.2452  0.5000
    6.1611     23.74     23.72    -26.62     18.74   17.1418     -2.17      75.91  2.2452  0.5000
    6.1712     23.07     23.73    -27.30     18.74   20.1702     -2.17     921.88 12.0577  0.5000
    6.1814     23.51     23.74    -26.87     18.73
    6.1915     23.82     23.75    -26.57     18.73
    6.2017     23.46     23.76    -26.93     18.73
    6.2119     23.48     23.77    -26.92     18.73
    6.2220     22.71     23.78    -27.70     18.73
    6.2322     22.30     23.79    -28.12     18.73
    6.2424     22.59     23.79    -27.84     18.73
    6.2525     23.72     23.80    -26.72     18.73
    6.2627     22.76     23.81    -27.69     18.73
    6.2729     23.11     23.82    -27.35     18.73
    6.2830     23.68     23.83    -26.79     18.73
    6.2932     23.45     23.84    -27.03     18.73
    6.3034     23.94     23.85    -26.55     18.72
    6.3135     23.26     23.86    -27.24     18.72
    6.3237     23.54     23.87    -26.97     18.72
    6.3338     23.20     23.88    -27.31     18.72
    6.3440     23.09     23.89    -27.43     18.72
    6.3542     23.37     23.90    -27.16     18.72
    6.3643     23.68     23.91    -26.86     18.72
    6.3745     22.82     23.92    -27.73     18.72
    6.3847     23.05     23.93    -27.51     18.72
    6.3948     23.02     23.94    -27.55     18.72
    6.4050     23.20     23.95    -27.38     18.72
    6.4152     22.73     23.96    -27.86     18.72
    6.4253     23.34     23.97    -27.26     18.71
    6.4355     23.07     23.98    -27.54     18.71
    6.4457     23.01     23.99    -27.61     18.71
    6.4558     23.56     23.99    -27.07     18.71
    6.4660     22.82     24.00    -27.82     18.71
    6.4762     22.78     24.01    -27.87     18.71
    6.4863     22.82     24.02    -27.84     18.71
    6.4965     23.57     24.03    -27.10     18.71
    6.5066     23.40     24.04    -27.28     18.71
    6.5168     23.19     24.05    -27.50     18.71
    6.5270     23.27     24.07    -27.43     18.71
    6.5371     23.17     24.08    -27.54     18.71
    6.5473     23.18     24.09    -27.54     18.70
    6.5575     23.58     24.10    -27.15     18.70
    6.5676     22.87     24.11    -27.87     18.70
    6.5778     22.98     24.12    -27.77     18.70
    6.5880     23.36     24.13    -27.40     18.70
    6.5981     22.32     24.14    -28.45     18.70
    6.6083     23.67     24.15    -27.11     18.70
    6.6185     23.23     24.16    -27.56     18.70
    6.6286     23.06     24.17    -27.74     18.70
    6.6388     23.57     24.18    -27.24     18.70
    6.6489     23.18     24.19    -27.65     18.70
    6.6591     23.32     24.20    -27.52     18.70
    6.6693     23.27     24.21    -27.58     18.69
    6.6794     23.01     24.22    -27.85     18.69
    6.6896     22.98     24.23    -27.89     18.69
    6.6998     22.93     24.24    -27.95     18.69
    6.7099     23.57     24.25    -27.32     18.69
    6.7201     22.88     24.26    -28.02     18.69
    6.7303     23.83     24.27    -27.08     18.69
    6.7404     23.37     24.29    -27.55     18.69
    6.7506     23.99     24.30    -26.94     18.69
    6.7608     23.32     24.31    -27.62     18.69
    6.7709     23.54     24.32    -27.41     18.69
    6.7811     22.93     24.33    -28.04     18.69
    6.7913     23.21     24.34    -27.77     18.68
    6.8014     23.56     24.35    -27.43     18.68
    6.8116     22.84     24.36    -28.16     18.68
    6.8217     22.93     24.37    -28.08     18.68
    6.8319     24.07     24.39    -26.95     18.68
    6.8421     23.24     24.40    -27.79     18.68
    6.8522     22.91     24.41    -28.13     18.68
    6.8624     23.30     24.42    -27.75     18.68
    6.8726     23.34     24.43    -27.73     18.68
    6.8827     23.11     24.44    -27.97     18.68
    6.8929     24.01     24.45    -27.08     18.68
    6.9031     23.16     24.46    -27.94     18.68
    6.9132     24.68     24.48    -26.43     18.67
    6.9234     22.57     24.49    -28.55     18.67
    6.9336     23.16     24.50    -27.98     18.67
    6.9437     23.23     24.51    -27.92     18.67
    6.9539     23.60     24.52    -27.56     18.67
    6.9640     23.40     24.53    -27.77     18.67
    6.9742     24.40     24.55    -26.78     18.67
    6.9844     24.56     24.56    -26.63     18.67
    6.9945     23.62     24.57    -27.59     18.67
    7.0047     23.62     24.58    -27.60     18.67
    7.0149     24.60     24.59    -26.63     18.67
    7.0250     23.36     24.61    -27.88     18.66
    7.0352     24.16     24.62    -27.09     18.66
    7.0454     23.89     24.63    -27.38     18.66
    7.0555     24.01     24.64    -27.27     18.66
    7.0657     23.23     24.65    -28.06     18.66
    7.0759     23.46     24.67    -27.84     18.66
    7.0860     23.52     24.68    -27.79     18.66
    7.0962     24.30     24.69    -27.03     18.66
    7.1064     24.47     24.70    -26.87     18.66
    7.1165     23.27     24.71    -28.08     18.66
    7.1267     23.59     24.73    -27.77     18.66
    7.1368     24.96     24.74    -26.42     18.66
    7.1470     23.48     24.75    -27.91     18.65
    7.1572     23.88     24.76    -27.52     18.65
    7.1673     23.84     24.78    -27.57     18.65
    7.1775     23.70     24.79    -27.73     18.65
    7.1877     23.81     24.80    -27.63     18.65
    7.1978     24.24     24.81    -27.21     18.65
    7.2080     24.14     24.83    -27.32     18.65
    7.2182     23.96     24.84    -27.52     18.65
    7.2283     24.28     24.85    -27.21     18.65
    7.2385     23.18     24.87    -28.32     18.65
    7.2487     24.39     24.88    -27.12     18.65
    7.2588     24.84     24.89    -26.69     18.65
    7.2690     24.45     24.90    -27.09     18.64
    7.2791     24.11     24.92    -27.44     18.64
    7.2893     24.26     24.93    -27.31     18.64
    7.2995     23.08     24.94    -28.50     18.64
    7.3096     24.50     24.96    -27.09     18.64
    7.3198     24.51     24.97    -27.10     18.64
    7.3300     23.84     24.98    -27.78     18.64
    7.3401     24.83     25.00    -26.80     18.64
    7.3503     25.02     25.01    -26.63     18.64
    7.3605     23.55     25.02    -28.11     18.64
    7.3706     24.82     25.04    -26.85     18.64
    7.3808     24.80     25.05    -26.89     18.64
    7.3910     24.67     25.06    -27.03     18.63
    7.4011     24.03     25.08    -27.68     18.63
    7.4113     25.22     25.09    -26.51     18.63
    7.4215     24.45     25.10    -27.29     18.63
    7.4316     24.07     25.12    -27.68     18.63
    7.4418     23.93     25.13    -27.84     18.63
    7.4519     24.24     25.15    -27.54     18.63
    7.4621     24.63     25.16    -27.17     18.63
    7.4723     23.95     25.17    -27.86     18.63
    7.4824     25.19     25.19    -26.63     18.63
    7.4926     24.51     25.20    -27.33     18.63
    7.5028     25.25     25.22    -26.60     18.63
    7.5129     25.15     25.23    -26.72     18.62
    7.5231     25.54     25.24    -26.34     18.62
    7.5333     24.73     25.26    -27.16     18.62
    7.5434     24.52     25.27    -27.39     18.62
    7.5536     24.88     25.29    -27.04     18.62
    7.5638     25.63     25.30    -26.31     18.62
    7.5739     25.44     25.31    -26.51     18.62
    7.5841     25.05     25.33    -26.91     18.62
    7.5942     25.15     25.34    -26.83     18.62
    7.6044     25.15     25.36    -26.84     18.62
    7.6146     24.87     25.37    -27.14     18.62
    7.6247     25.65     25.39    -26.37     18.62
    7.6349     24.97     25.40    -27.07     18.61
    7.6451     24.62     25.42    -27.43     18.61
    7.6552     24.60     25.43    -27.47     18.61
    7.6654     25.07     25.45    -27.01     18.61
    7.6756     24.87     25.46    -27.23     18.61
    7.6857     24.01     25.48    -28.10     18.61
    7.6959     25.01     25.49    -27.12     18.61
    7.7061     25.11     25.51    -27.03     18.61
    7.7162     25.22     25.52    -26.94     18.61
    7.7264     24.79     25.54    -27.38     18.61
    7.7365     25.11     25.55    -27.08     18.61
    7.7467     25.46     25.57    -26.74     18.61
    7.7569     25.16     25.58    -27.06     18.60
    7.7670     25.05     25.60    -27.18     18.60
    7.7772     25.48     25.61    -26.77     18.60
    7.7874     24.48     25.63    -27.78     18.60
    7.7975     24.96     25.64    -27.32     18.60
    7.8077     25.23     25.66    -27.06     18.60
    7.8179     25.54     25.67    -26.77     18.60
    7.8280     24.94     25.69    -27.38     18.60
    7.8382     25.87     25.70    -26.47     18.60
    7.8484     25.08     25.72    -27.28     18.60
    7.8585     25.62     25.74    -26.75     18.60
    7.8687     25.20     25.75    -27.19     18.60
    7.8789     25.75     25.77    -26.65     18.59
    7.8890     25.70     25.78    -26.72     18.59
    7.8992     25.41     25.80    -27.02     18.59
    7.9093     25.83     25.81    -26.62     18.59
    7.9195     25.76     25.83    -26.71     18.59
    7.9297     25.78     25.85    -26.70     18.59
    7.9398     25.67     25.86    -26.83     18.59
    7.9500     26.50     25.88    -26.01     18.59
    7.9602     25.79     25.90    -26.74     18.59
    7.9703     26.16     25.91    -26.39     18.59
    7.9805     25.71     25.93    -26.85     18.59
    7.9907     26.70     25.94    -25.88     18.59
    8.0008     25.79     25.96    -26.81     18.58
    8.0110     25.24     25.98    -27.37     18.58
    8.0212     26.76     25.99    -25.87     18.58
    8.0313     26.51     26.01    -26.14     18.58
    8.0415     26.13     26.03    -26.53     18.58
    8.0516     26.47     26.04    -26.21     18.58
    8.0618     26.25     26.06    -26.45     18.58
    8.0720     27.31     26.08    -25.40     18.58
    8.0821     25.99     26.09    -26.74     18.58
    8.0923     26.10     26.11    -26.65     18.58
    8.1025     25.91     26.13    -26.85     18.58
    8.1126     26.33     26.14    -26.45     18.58
    8.1228     26.52     26.16    -26.28     18.57
    8.1330     25.82     26.18    -27.00     18.57
    8.1431     26.32     26.20    -26.51     18.57
    8.1533     26.56     26.21    -26.29     18.57
    8.1635     26.27     26.23    -26.60     18.57
    8.1736     25.93     26.25    -26.95     18.57
    8.1838     26.14     26.27    -26.76     18.57
    8.1940     25.77     26.28    -27.15     18.57
    8.2041     26.90     26.30    -26.04     18.57
    8.2143     26.76     26.32    -26.19     18.57
    8.2244     26.95     26.34    -26.02     18.57
    8.2346     26.97     26.35    -26.02     18.56
    8.2448     26.51     26.37    -26.50     18.56
    8.2549     26.02     26.39    -27.01     18.56
    8.2651     27.48     26.41    -25.56     18.56
    8.2753     26.77     26.42    -26.29     18.56
    8.2854     27.10     26.44    -25.98     18.56
    8.2956     27.42     26.46    -25.68     18.56
    8.3058     26.66     26.48    -26.46     18.56
    8.3159     27.38     26.50    -25.75     18.56
    8.3261     26.48     26.52    -26.67     18.56
    8.3363     27.32     26.53    -25.85     18.56
    8.3464     27.02     26.55    -26.17     18.56
    8.3566     26.70     26.57    -26.51     18.55
    8.3667     27.54     26.59    -25.68     18.55
    8.3769     26.68     26.61    -26.56     18.55
    8.3871     26.51     26.63    -26.75     18.55
    8.3972     26.30     26.64    -26.98     18.55
    8.4074     26.78     26.66    -26.52     18.55
    8.4176     26.58     26.68    -26.74     18.55
    8.4277     26.46     26.70    -26.88     18.55
    8.4379     27.23     26.72    -26.13     18.55
    8.4481     27.15     26.74    -26.22     18.55
    8.4582     26.48     26.76    -26.91     18.55
    8.4684     26.54     26.78    -26.87     18.55
    8.4786     27.90     26.80    -25.53     18.54
    8.4887     27.24     26.81    -26.21     18.54
    8.4989     26.94     26.83    -26.53     18.54
    8.5091     27.61     26.85    -25.88     18.54
    8.5192     26.68     26.87    -26.83     18.54
    8.5294     27.49     26.89    -26.04     18.54
    8.5395     27.98     26.91    -25.57     18.54
    8.5497     27.32     26.93    -26.25     18.54
    8.5599     27.44     26.95    -26.15     18.54
    8.5700     28.07     26.97    -25.54     18.54
    8.5802     27.46     26.99    -26.17     18.54
    8.5904     26.91     27.01    -26.74     18.54
    8.6005     26.96     27.03    -26.71     18.53
    8.6107     27.63     27.05    -26.06     18.53
    8.6209     27.51     27.07    -26.20     18.53
    8.6310     27.81     27.09    -25.92     18.53
    8.6412     27.91     27.11    -25.84     18.53
    8.6514     27.68     27.13    -26.09     18.53
    8.6615     28.30     27.15    -25.49     18.53
    8.6717     27.12     27.17    -26.69     18.53
    8.6818     27.39     27.19    -26.44     18.53
    8.6920     27.22     27.21    -26.63     18.53
    8.7022     28.00     27.23    -25.87     18.53
    8.7123     27.84     27.25    -26.05     18.53
    8.7225     27.57     27.27    -26.34     18.52
    8.7327     27.84     27.29    -26.09     18.52
    8.7428     28.99     27.31    -24.96     18.52
    8.7530     27.15     27.33    -26.82     18.52
    8.7632     27.67     27.36    -26.32     18.52
    8.7733     28.15     27.38    -25.86     18.52
    8.7835     27.66     27.40    -26.37     18.52
    8.7937     27.21     27.42    -26.84     18.52
    8.8038     27.96     27.44    -26.11     18.52
    8.8140     28.70     27.46    -25.40     18.52
    8.8242     27.78     27.48    -26.34     18.52
    8.8343     27.50     27.50    -26.64     18.52
    8.8445     27.97     27.52    -26.19     18.51
    8.8546     28.38     27.55    -25.80     18.51
    8.8648     27.59     27.57    -26.61     18.51
    8.8750     28.38     27.59    -25.84     18.51
    8.8851     28.35     27.61    -25.90     18.51
    8.8953     28.57     27.63    -25.70     18.51
    8.9055     29.04     27.65    -25.25     18.51
    8.9156     28.29     27.68    -26.02     18.51
    8.9258     28.57     27.70    -25.76     18.51
    8.9360     28.01     27.72    -26.34     18.51
    8.9461     28.40     27.74    -25.98     18.51
    8.9563     28.16     27.76    -26.24     18.51
    8.9665     28.35     27.79    -26.07     18.50
    8.9766     28.40     27.81    -26.04     18.50
    8.9868     29.10     27.83    -25.37     18.50
    8.9969     29.51     27.85    -24.98     18.50
    9.0071     27.83     27.87    -26.68     18.50
    9.0173     29.90     27.90    -24.63     18.50
    9.0274     29.44     27.92    -25.12     18.50
    9.0376     27.68     27.94    -26.90     18.50
    9.0478     29.10     27.96    -25.50     18.50
    9.0579     29.10     27.99    -25.52     18.50
    9.0681     29.10     28.01    -25.55     18.50
    9.0783     28.95     28.03    -25.72     18.50
    9.0884     29.30     28.06    -25.39     18.49
    9.0986     27.91     28.08    -26.80     18.49
    9.1088     29.66     28.10    -25.08     18.49
    9.1189     28.67     28.13    -26.09     18.49
    9.1291     28.79     28.15    -25.99     18.49
    9.1393     28.97     28.17    -25.84     18.49
    9.1494     29.12     28.20    -25.71     18.49
    9.1596     29.05     28.22    -25.80     18.49
    9.1697     28.91     28.24    -25.97     18.49
    9.1799     29.22     28.27    -25.68     18.49
    9.1901     28.71     28.29    -26.22     18.49
    9.2002     29.48     28.31    -25.47     18.49
    9.2104     29.14     28.34    -25.83     18.48
    9.2206     28.27     28.36    -26.73     18.48
    9.2307     29.45     28.38    -25.57     18.48
    9.2409     29.74     28.41    -25.30     18.48
    9.2511     29.04     28.43    -26.03     18.48
    9.2612     29.59     28.46    -25.50     18.48
    9.2714     29.31     28.48    -25.81     18.48
    9.2816     28.70     28.51    -26.44     18.48
    9.2917     29.30     28.53    -25.87     18.48
    9.3019     29.20     28.55    -25.99     18.48
    9.3120     28.71     28.58    -26.50     18.48
    9.3222     29.87     28.60    -25.37     18.48
    9.3324     29.01     28.63    -26.25     18.47
    9.3425     29.41     28.65    -25.88     18.47
    9.3527     28.85     28.68    -26.46     18.47
    9.3629     29.46     28.70    -25.88     18.47
    9.3730     29.73     28.73    -25.63     18.47
    9.3832     29.54     28.75    -25.85     18.47
    9.3934     29.70     28.78    -25.71     18.47
    9.4035     29.25     28.80    -26.19     18.47
    9.4137     29.70     28.83    -25.76     18.47
    9.4239     29.18     28.85    -26.31     18.47
    9.4340     29.79     28.88    -25.72     18.47
    9.4442     29.26     28.90    -26.28     18.46
    9.4544     30.65     28.93    -24.92     18.46
    9.4645     29.26     28.95    -26.33     18.46
    9.4747     29.46     28.98    -26.16     18.46
    9.4848     30.37     29.01    -25.27     18.46
    9.4950     28.90     29.03    -26.77     18.46
    9.5052     29.98     29.06    -25.71     18.46
    9.5153     30.27     29.08    -25.45     18.46
    9.5255     29.90     29.11    -25.85     18.46
    9.5357     29.89     29.14    -25.88     18.46
    9.5458     30.04     29.16    -25.76     18.46
    9.5560     29.41     29.19    -26.41     18.46
    9.5662     29.96     29.21    -25.89     18.45
    9.5763     30.26     29.24    -25.62     18.45
    9.5865     29.30     29.27    -26.60     18.45
    9.5967     30.51     29.29    -25.42     18.45
    9.6068     30.76     29.32    -25.20     18.45
    9.6170     29.89     29.35    -26.09     18.45
    9.6271     30.70     29.37    -25.31     18.45
    9.6373     30.15     29.40    -25.89     18.45
    9.6475     29.76     29.43    -26.30     18.45
    9.6576     30.38     29.45    -25.71     18.45
    9.6678     29.52     29.48    -26.60     18.45
    9.6780     30.29     29.51    -25.86     18.45
    9.6881     30.33     29.54    -25.84     18.44
    9.6983     30.10     29.56    -26.10     18.44
    9.7085     29.68     29.59    -26.55     18.44
    9.7186     29.95     29.62    -26.30     18.44
    9.7288     30.57     29.65    -25.71     18.44
    9.7390     29.99     29.67    -26.32     18.44
    9.7491     30.21     29.70    -26.13     18.44
    9.7593     29.88     29.73    -26.49     18.44
    9.7694     29.95     29.76    -26.44     18.44
    9.7796     30.35     29.79    -26.07     18.44
    9.7898     30.72     29.81    -25.73     18.44
    9.7999     30.83     29.84    -25.65     18.44
    9.8101     30.55     29.87    -25.96     18.43
    9.8203     30.50     29.90    -26.03     18.43
    9.8304     29.82     29.93    -26.74     18.43
    9.8406     31.03     29.95    -25.56     18.43
    9.8508     30.82     29.98    -25.80     18.43
    9.8609     30.70     30.01    -25.95     18.43
    9.8711     31.08     30.04    -25.60     18.43
    9.8813     30.65     30.07    -26.06     18.43
    9.8914     29.92     30.10    -26.81     18.43
    9.9016     31.79     30.13    -24.97     18.43
    9.9118     31.80     30.16    -24.99     18.43
    9.9219     30.93     30.18    -25.89     18.43
    9.9321     30.81     30.21    -26.04     18.42
    9.9422     30.95     30.24    -25.93     18.42
    9.9524     31.06     30.27    -25.85     18.42
    9.9626     31.06     30.30    -25.88     18.42
    9.9727     31.20     30.33    -25.77     18.42
    9.9829     30.91     30.36    -26.09     18.42
    9.9931     30.99     30.39    -26.04     18.42
   10.0032     30.45     30.42    -26.61     18.42
   10.0134     31.35     30.45    -25.74     18.42
   10.0236     31.05     30.48    -26.07     18.42
   10.0337     30.65     30.51    -26.50     18.42
   10.0439     31.18     30.54    -26.00     18.42
   10.0541     31.50     30.57    -25.71     18.41
   10.0642     31.58     30.60    -25.66     18.41
   10.0744     31.02     30.63    -26.25     18.41
   10.0845     31.04     30.66    -26.26     18.41
   10.0947     30.68     30.69    -26.65     18.41
   10.1049     31.06     30.72    -26.30     18.41
   10.1150     31.43     30.75    -25.96     18.41
   10.1252     32.10     30.78    -25.32     18.41
   10.1354     30.75     30.81    -26.70     18.41
   10.1455     31.22     30.85    -26.26     18.41
   10.1557     30.95     30.88    -26.56     18.41
   10.1659     31.07     30.91    -26.47     18.41
   10.1760     32.34     30.94    -25.23     18.40
   10.1862     31.94     30.97    -25.67     18.40
   10.1964     31.41     31.00    -26.23     18.40
   10.2065     31.59     31.03    -26.08     18.40
   10.2167     32.46     31.06    -25.24     18.40
   10.2269     32.49     31.10    -25.24     18.40
   10.2370     32.02     31.13    -25.74     18.40
   10.2472     32.13     31.16    -25.66     18.40
   10.2573     31.76     31.19    -26.07     18.40
   10.2675     31.44     31.22    -26.42     18.40
   10.2777     31.61     31.25    -26.28     18.40
   10.2878     31.55     31.29    -26.37     18.40
   10.2980     32.65     31.32    -25.30     18.39
   10.3082     32.51     31.35    -25.48     18.39
   10.3183     32.33     31.38    -25.69     18.39
   10.3285     31.98     31.42    -26.07     18.39
   10.3387     32.09     31.45    -25.99     18.39
   10.3488     32.32     31.48    -25.80     18.39
   10.3590     30.57     31.51    -27.58     18.39
   10.3692     31.76     31.55    -26.42     18.39
   10.3793     31.76     31.58    -26.45     18.39
   10.3895     32.04     31.61    -26.21     18.39
   10.3996     31.72     31.64    -26.56     18.39
   10.4098     31.24     31.68    -27.07     18.39
   10.4200     31.74     31.71    -26.61     18.38
   10.4301     31.49     31.74    -26.89     18.38
   10.4403     31.75     31.78    -26.66     18.38
   10.4505     31.84     31.81    -26.61     18.38
   10.4606     31.72     31.84    -26.76     18.38
   10.4708     32.96     31.88    -25.55     18.38
   10.4810     32.24     31.91    -26.31     18.38
   10.4911     32.35     31.95    -26.23     18.38
   10.5013     32.54     31.98    -26.08     18.38
   10.5115     31.80     32.01    -26.85     18.38
   10.5216     31.76     32.05    -26.92     18.38
   10.5318     31.72     32.08    -27.00     18.38
   10.5420     32.45     32.12    -26.30     18.37
   10.5521     31.65     32.15    -27.14     18.37
   10.5623     31.88     32.18    -26.94     18.37
   10.5724     31.64     32.22    -27.22     18.37
   10.5826     32.47     32.25    -26.42     18.37
   10.5928     32.23     32.29    -26.69     18.37
   10.6029     32.49     32.32    -26.47     18.37
   10.6131     33.19     32.36    -25.80     18.37
   10.6233     32.44     32.39    -26.59     18.37
   10.6334     32.59     32.43    -26.47     18.37
   10.6436     33.44     32.46    -25.66     18.37
   10.6538     33.56     32.50    -25.57     18.36
   10.6639     33.13     32.53    -26.04     18.36
   10.6741     32.04     32.57    -27.17     18.36
   10.6843     33.18     32.60    -26.06     18.36
   10.6944     32.91     32.64    -26.37     18.36
   10.7046     32.65     32.68    -26.66     18.36
   10.7147     33.36     32.71    -25.99     18.36
   10.7249     33.96     32.75    -25.42     18.36
   10.7351     33.83     32.78    -25.59     18.36
   10.7452     33.12     32.82    -26.34     18.36
   10.7554     33.12     32.86    -26.37     18.36
   10.7656     32.75     32.89    -26.78     18.36
   10.7757     33.32     32.93    -26.24     18.35
   10.7859     33.26     32.96    -26.34     18.35
   10.7961     32.16     33.00    -27.48     18.35
   10.8062     33.59     33.04    -26.08     18.35
   10.8164     33.79     33.07    -25.92     18.35
   10.8266     33.36     33.11    -26.39     18.35
   10.8367     32.90     33.15    -26.88     18.35
   10.8469     33.36     33.19    -26.46     18.35
   10.8571     34.15     33.22    -25.71     18.35
   10.8672     33.61     33.26    -26.29     18.35
   10.8774     33.26     33.30    -26.67     18.35
   10.8875     32.80     33.33    -27.17     18.35
   10.8977     33.38     33.37    -26.63     18.34
   10.9079     33.60     33.41    -26.44     18.34
   10.9180     33.80     33.45    -26.28     18.34
   10.9282     33.90     33.48    -26.22     18.34
   10.9384     33.57     33.52    -26.59     18.34
   10.9485     33.13     33.56    -27.07     18.34
   10.9587     33.62     33.60    -26.61     18.34
   10.9689     32.91     33.64    -27.36     18.34
   10.9790     33.96     33.67    -26.35     18.34
   10.9892     34.13     33.71    -26.22     18.34
   10.9994     33.90     33.75    -26.49     18.34
   11.0095     34.48     33.79    -25.95     18.34
   11.0197     33.80     33.83    -26.66     18.33
   11.0298     34.04     33.87    -26.46     18.33
   11.0400     34.31     33.91    -26.23     18.33
   11.0502     33.47     33.94    -27.11     18.33
   11.0603     33.36     33.98    -27.26     18.33
   11.0705     33.55     34.02    -27.11     18.33
   11.0807     34.53     34.06    -26.17     18.33
   11.0908     34.12     34.10    -26.62     18.33
   11.1010     33.30     34.14    -27.48     18.33
   11.1112     34.02     34.18    -26.80     18.33
   11.1213     34.95     34.22    -25.90     18.33
   11.1315     33.71     34.26    -27.18     18.33
   11.1417     33.46     34.30    -27.47     18.32
   11.1518     34.75     34.34    -26.22     18.32
   11.1620     34.63     34.38    -26.38     18.32
   11.1722     33.90     34.42    -27.15     18.32
   11.1823     34.43     34.46    -26.66     18.32
   11.1925     34.66     34.50    -26.47     18.32
   11.2026     35.20     34.54    -25.97     18.32
   11.2128     34.98     34.58    -26.23     18.32
   11.2230     33.68     34.62    -27.57     18.32
   11.2331     34.67     34.66    -26.63     18.32
   11.2433     35.00     34.70    -26.34     18.32
   11.2535     34.56     34.74    -26.82     18.32
   11.2636     34.78     34.78    -26.64     18.31
   11.2738     35.73     34.82    -25.73     18.31
   11.2840     35.30     34.86    -26.20     18.31
   11.2941     35.91     34.90    -25.63     18.31
   11.3043     35.15     34.95    -26.43     18.31
   11.3145     34.74     34.99    -26.88     18.31
   11.3246     35.46     35.03    -26.20     18.31
   11.3348     34.35     35.07    -27.36     18.31
   11.3449     35.26     35.11    -26.49     18.31
   11.3551     34.57     35.15    -27.22     18.31
   11.3653     34.63     35.20    -27.20     18.31
   11.3754     35.43     35.24    -26.44     18.31
   11.3856     35.71     35.28    -26.21     18.30
   11.3958     34.86     35.32    -27.10     18.30
   11.4059     34.22     35.36    -27.78     18.30
   11.4161     35.60     35.41    -26.44     18.30
   11.4263     35.20     35.45    -26.88     18.30
   11.4364     34.36     35.49    -27.77     18.30
   11.4466     34.99     35.53    -27.18     18.30
   11.4568     34.80     35.58    -27.41     18.30
   11.4669     34.96     35.62    -27.30     18.30
   11.4771     34.50     35.66    -27.80     18.30
   11.4873     35.50     35.71    -26.84     18.30
   11.4974     36.00     35.75    -26.38     18.30
   11.5076     35.56     35.79    -26.87     18.29
   11.5177     36.18     35.83    -26.29     18.29
   11.5279     36.05     35.88    -26.46     18.29
   11.5381     35.76     35.92    -26.80     18.29
   11.5482     35.15     35.97    -27.45     18.29
   11.5584     35.46     36.01    -27.19     18.29
   11.5686     35.27     36.05    -27.42     18.29
   11.5787     34.92     36.10    -27.81     18.29
   11.5889     35.34     36.14    -27.44     18.29
   11.5991     35.52     36.19    -27.30     18.29
   11.6092     35.36     36.23    -27.51     18.29
   11.6194     36.23     36.27    -26.68     18.29
   11.6296     37.00     36.32    -25.95     18.28
   11.6397     36.01     36.36    -26.99     18.28
   11.6499     35.70     36.41    -27.34     18.28
   11.6600     35.87     36.45    -27.22     18.28
   11.6702     35.94     36.50    -27.19     18.28
   11.6804     36.15     36.54    -27.03     18.28
   11.6905     36.49     36.59    -26.73     18.28
   11.7007     36.67     36.63    -26.60     18.28
   11.7109     35.78     36.68    -27.53     18.28
   11.7210     35.65     36.72    -27.71     18.28
   11.7312     35.85     36.77    -27.55     18.28
   11.7414     35.29     36.81    -28.16     18.28
   11.7515     36.59     36.86    -26.91     18.27
   11.7617     36.23     36.91    -27.31     18.27
   11.7719     36.69     36.95    -26.90     18.27
   11.7820     36.57     37.00    -27.06     18.27
   11.7922     37.14     37.04    -26.54     18.27
   11.8023     36.09     37.09    -27.64     18.27
   11.8125     36.22     37.14    -27.55     18.27
   11.8227     36.52     37.18    -27.30     18.27
   11.8328     37.04     37.23    -26.82     18.27
   11.8430     37.32     37.28    -26.59     18.27
   11.8532     36.31     37.32    -27.65     18.27
   11.8633     36.71     37.37    -27.29     18.26
   11.8735     37.62     37.42    -26.43     18.26
   11.8837     36.83     37.46    -27.27     18.26
   11.8938     36.81     37.51    -27.34     18.26
   11.9040     37.00     37.56    -27.19     18.26
   11.9142     37.59     37.60    -26.65     18.26
   11.9243     37.11     37.65    -27.18     18.26
   11.9345     36.82     37.70    -27.52     18.26
   11.9447     36.47     37.75    -27.91     18.26
   11.9548     37.30     37.79    -27.13     18.26
   11.9650     37.54     37.84    -26.94     18.26
   11.9751     37.92     37.89    -26.61     18.26
   11.9853     37.01     37.94    -27.56     18.25
   11.9955     36.62     37.99    -28.00     18.25
   12.0056     38.36     38.03    -26.31     18.25
   12.0158     37.34     38.08    -27.38     18.25
   12.0260     37.00     38.13    -27.77     18.25
   12.0361     39.09     38.18    -25.73     18.25
   12.0463     37.38     38.23    -27.48     18.25
   12.0565     38.07     38.28    -26.84     18.25
   12.0666     37.70     38.33    -27.26     18.25
   12.0768     37.84     38.38    -27.17     18.25
   12.0870     37.78     38.42    -27.28     18.25
   12.0971     38.12     38.47    -26.99     18.25
   12.1073     37.88     38.52    -27.28     18.24
   12.1174     37.96     38.57    -27.25     18.24
   12.1276     38.91     38.62    -26.35     18.24
   12.1378     37.28     38.67    -28.03     18.24
   12.1479     38.68     38.72    -26.68     18.24
   12.1581     38.88     38.77    -26.53     18.24
   12.1683     38.31     38.82    -27.15     18.24
   12.1784     37.58     38.87    -27.93     18.24
   12.1886     38.75     38.92    -26.81     18.24
   12.1988     37.60     38.97    -28.01     18.24
   12.2089     39.09     39.02    -26.57     18.24
   12.2191     39.86     39.07    -25.85     18.24
   12.2293     38.63     39.12    -27.13     18.23
   12.2394     38.27     39.17    -27.54     18.23
   12.2496     39.12     39.22    -26.74     18.23
   12.2598     38.90     39.28    -27.01     18.23
   12.2699     38.87     39.33    -27.09     18.23
   12.2801     38.34     39.38    -27.67     18.23
   12.2902     39.26     39.43    -26.80     18.23
   12.3004     38.04     39.48    -28.08     18.23
   12.3106     39.59     39.53    -26.58     18.23
   12.3207     39.10     39.58    -27.12     18.23
   12.3309     39.13     39.64    -27.14     18.23
   12.3411     38.96     39.69    -27.36     18.23
   12.3512     38.12     39.74    -28.25     18.22
   12.3614     38.14     39.79    -28.29     18.22
   12.3716     39.49     39.84    -26.99     18.22
   12.3817     39.36     39.89    -27.17     18.22
   12.3919     39.29     39.95    -27.29     18.22
   12.4021     40.41     40.00    -26.23     18.22
   12.4122     40.24     40.05    -26.45     18.22
   12.4224     39.62     40.11    -27.12     18.22
   12.4325     39.74     40.16    -27.05     18.22
   12.4427     39.93     40.21    -26.92     18.22
   12.4529     39.46     40.26    -27.44     18.22
   12.4630     38.79     40.32    -28.16     18.22
   12.4732     38.95     40.37    -28.06     18.21
   12.4834     39.29     40.42    -27.77     18.21
   12.4935     40.26     40.48    -26.85     18.21
   12.5037     40.34     40.53    -26.83     18.21
   12.5139     40.67     40.58    -26.55     18.21
   12.5240     40.12     40.64    -27.15     18.21
   12.5342     38.82     40.69    -28.51     18.21
   12.5444     40.13     40.75    -27.25     18.21
   12.5545     39.85     40.80    -27.59     18.21
   12.5647     40.27     40.85    -27.22     18.21
   12.5749     40.04     40.91    -27.50     18.21
   12.5850     40.33     40.96    -27.27     18.21
   12.5952     40.65     41.02    -27.00     18.20
   12.6053     41.00     41.07    -26.71     18.20
   12.6155     40.63     41.13    -27.13     18.20
   12.6257     40.62     41.18    -27.20     18.20
   12.6358     40.50     41.24    -27.37     18.20
   12.6460     39.36     41.29    -28.57     18.20
   12.6562     40.81     41.35    -27.17     18.20
   12.6663     40.75     41.40    -27.29     18.20
   12.6765     40.47     41.46    -27.62     18.20
   12.6867     40.09     41.51    -28.06     18.20
   12.6968     39.54     41.57    -28.66     18.20
   12.7070     40.95     41.62    -27.31     18.20
   12.7172     41.13     41.68    -27.19     18.19
   12.7273     40.45     41.74    -27.92     18.19
   12.7375     40.67     41.79    -27.76     18.19
   12.7476     40.84     41.85    -27.64     18.19
   12.7578     40.45     41.90    -28.09     18.19
   12.7680     41.07     41.96    -27.53     18.19
   12.7781     41.54     42.02    -27.11     18.19
   12.7883     40.95     42.07    -27.76     18.19
   12.7985     40.98     42.13    -27.79     18.19
   12.8086     41.98     42.19    -26.84     18.19
   12.8188     41.51     42.25    -27.37     18.19
   12.8290     41.68     42.30    -27.26     18.19
   12.8391     42.36     42.36    -26.64     18.18
   12.8493     42.23     42.42    -26.82     18.18
   12.8595     41.51     42.47    -27.60     18.18
   12.8696     41.52     42.53    -27.65     18.18
   12.8798     42.04     42.59    -27.19     18.18
   12.8900     42.06     42.65    -27.22     18.18
   12.9001     42.15     42.71    -27.19     18.18
   12.9103     41.96     42.76    -27.44     18.18
   12.9204     42.16     42.82    -27.30     18.18
   12.9306     42.99     42.88    -26.53     18.18
   12.9408     42.48     42.94    -27.09     18.18
   12.9509     42.77     43.00    -26.86     18.18
   12.9611     42.05     43.06    -27.64     18.17
   12.9713     43.32     43.11    -26.43     18.17
   12.9814     41.90     43.17    -27.91     18.17
   12.9916     42.48     43.23    -27.39     18.17
   13.0018     43.67     43.29    -26.26     18.17
   13.0119     41.66     43.35    -28.33     18.17
   13.0221     42.84     43.41    -27.21     18.17
   13.0323     42.98     43.47    -27.13     18.17
   13.0424     43.15     43.53    -27.02     18.17
   13.0526     43.16     43.59    -27.07     18.17
   13.0627     43.86     43.65    -26.42     18.17
   13.0729     43.91     43.71    -26.43     18.16
   13.0831     43.08     43.77    -27.33     18.16
   13.0932     43.00     43.83    -27.47     18.16
   13.1034     43.81     43.89    -26.72     18.16
   13.1136     43.32     43.95    -27.27     18.16
   13.1237     43.65     44.01    -27.00     18.16
   13.1339     44.06     44.07    -26.65     18.16
   13.1441     42.97     44.13    -27.80     18.16
   13.1542     43.46     44.19    -27.37     18.16
   13.1644     43.97     44.25    -26.92     18.16
   13.1746     44.47     44.32    -26.48     18.16
   13.1847     44.07     44.38    -26.94     18.16
   13.1949     43.77     44.44    -27.30     18.15
   13.2051     44.80     44.50    -26.34     18.15
   13.2152     43.77     44.56    -27.43     18.15
   13.2254     44.87     44.62    -26.39     18.15
   13.2355     45.05     44.69    -26.27     18.15
   13.2457     44.60     44.75    -26.78     18.15
   13.2559     44.25     44.81    -27.20     18.15
   13.2660     45.07     44.87    -26.44     18.15
   13.2762     44.10     44.93    -27.47     18.15
   13.2864     43.85     45.00    -27.78     18.15
   13.2965     44.93     45.06    -26.77     18.15
   13.3067     44.43     45.12    -27.33     18.15
   13.3169     45.15     45.19    -26.67     18.14
   13.3270     43.90     45.25    -27.98     18.14
   13.3372     44.29     45.31    -27.66     18.14
   13.3474     45.66     45.38    -26.35     18.14
   13.3575     45.42     45.44    -26.65     18.14
   13.3677     44.73     45.50    -27.41     18.14
   13.3778     45.45     45.57    -26.75     18.14
   13.3880     44.60     45.63    -27.67     18.14
   13.3982     46.28     45.69    -26.05     18.14
   13.4083     45.14     45.76    -27.25     18.14
   13.4185     45.60     45.82    -26.86     18.14
   13.4287     45.59     45.89    -26.93     18.14
   13.4388     46.32     45.95    -26.27     18.13
   13.4490     45.10     46.02    -27.55     18.13
   13.4592     45.82     46.08    -26.90     18.13
   13.4693     46.47     46.15    -26.31     18.13
   13.4795     46.53     46.21    -26.32     18.13
   13.4897     46.34     46.28    -26.57     18.13
   13.4998     46.28     46.34    -26.70     18.13
   13.5100     46.47     46.41    -26.57     18.13
   13.5201     46.08     46.47    -27.03     18.13
   13.5303     47.38     46.54    -25.80     18.13
   13.5405     47.10     46.61    -26.14     18.13
   13.5506     47.00     46.67    -26.31     18.13
   13.5608     47.38     46.74    -25.99     18.12
   13.5710     47.16     46.80    -26.28     18.12
   13.5811     46.90     46.87    -26.61     18.12
   13.5913     46.53     46.94    -27.04     18.12
   13.6015     46.40     47.00    -27.24     18.12
   13.6116     48.13     47.07    -25.58     18.12
   13.6218     47.28     47.14    -26.49     18.12
   13.6320     47.25     47.21    -26.59     18.12
   13.6421     47.71     47.27    -26.20     18.12
   13.6523     47.32     47.34    -26.66     18.12
   13.6625     46.82     47.41    -27.23     18.12
   13.6726     47.91     47.48    -26.20     18.12
   13.6828     48.29     47.55    -25.89     18.11
   13.6929     48.16     47.61    -26.09     18.11
   13.7031     48.32     47.68    -26.00     18.11
   13.7133     48.54     47.75    -25.85     18.11
   13.7234     48.24     47.82    -26.22     18.11
   13.7336     49.05     47.89    -25.47     18.11
   13.7438     47.77     47.96    -26.82     18.11
   13.7539     47.95     48.03    -26.71     18.11
   13.7641     48.59     48.10    -26.14     18.11
   13.7743     49.12     48.17    -25.68     18.11
   13.7844     48.07     48.24    -26.80     18.11
   13.7946     49.51     48.31    -25.43     18.11
   13.8048     49.47     48.38    -25.54     18.10
   13.8149     48.40     48.45    -26.68     18.10
   13.8251     48.78     48.52    -26.37     18.10
   13.8352     50.46     48.59    -24.76     18.10
   13.8454     48.64     48.66    -26.65     18.10
   13.8556     49.02     48.73    -26.35     18.10
   13.8657     49.65     48.80    -25.79     18.10
   13.8759     50.03     48.87    -25.48     18.10
   13.8861     49.14     48.94    -26.44     18.10
   13.8962     50.90     49.02    -24.75     18.10
   13.9064     49.53     49.09    -26.19     18.10
   13.9166     50.54     49.16    -25.26     18.10
   13.9267     49.34     49.23    -26.53     18.09
   13.9369     50.77     49.31    -25.17     18.09
   13.9471     49.96     49.38    -26.06     18.09
   13.9572     51.06     49.45    -25.03     18.09
   13.9674     50.52     49.53    -25.64     18.09
   13.9776     50.48     49.60    -25.76     18.09
   13.9877     50.35     49.67    -25.96     18.09
   13.9979     50.14     49.75    -26.24     18.09
   14.0080     50.59     49.82    -25.87     18.09
   14.0182     50.98     49.90    -25.55     18.09
   14.0284     51.54     49.97    -25.07     18.09
   14.0385     51.40     50.04    -25.28     18.09
   14.0487     51.19     50.12    -25.57     18.08
   14.0589     51.37     50.20    -25.46     18.08
   14.0690     51.13     50.27    -25.78     18.08
   14.0792     51.90     50.35    -25.08     18.08
   14.0894     51.13     50.42    -25.93     18.08
   14.0995     50.56     50.50    -26.58     18.08
   14.1097     52.40     50.58    -24.81     18.08
   14.1199     51.82     50.65    -25.47     18.08
   14.1300     51.78     50.73    -25.59     18.08
   14.1402     52.97     50.81    -24.47     18.08
   14.1503     51.72     50.88    -25.80     18.08
   14.1605     52.04     50.96    -25.56     18.08
   14.1707     52.72     51.04    -24.96     18.07
   14.1808     51.15     51.12    -26.61     18.07
   14.1910     53.16     51.20    -24.67     18.07
   14.2012     53.18     51.28    -24.73     18.07
   14.2113     52.66     51.36    -25.33     18.07
   14.2215     52.78     51.44    -25.29     18.07
   14.2317     52.48     51.52    -25.67     18.07
   14.2418     53.21     51.60    -25.02     18.07
   14.2520     53.96     51.68    -24.35     18.07
   14.2622     51.96     51.76    -26.43     18.07
   14.2723     53.75     51.84    -24.73     18.07
   14.2825     54.91     51.92    -23.65     18.06
   14.2927     53.64     52.00    -25.00     18.06
   14.3028     54.04     52.08    -24.68     18.06
   14.3130     54.24     52.17    -24.56     18.06
   14.3231     53.60     52.25    -25.29     18.06
   14.3333     54.09     52.33    -24.88     18.06
   14.3435     55.75     52.42    -23.30     18.06
   14.3536     53.92     52.50    -25.22     18.06
   14.3638     54.34     52.58    -24.88     18.06
   14.3740     54.24     52.67    -25.07     18.06
   14.3841     55.77     52.75    -23.62     18.06
   14.3943     54.77     52.84    -24.71     18.06
   14.4045     54.70     52.93    -24.86     18.05
   14.4146     55.44     53.01    -24.21     18.05
   14.4248     54.88     53.10    -24.85     18.05
   14.4350     55.64     53.19    -24.18     18.05
   14.4451     54.71     53.27    -25.20     18.05
   14.4553     55.06     53.36    -24.94     18.05
   14.4654     55.95     53.45    -24.13     18.05
   14.4756     57.02     53.54    -23.15     18.05
   14.4858     56.27     53.63    -23.99     18.05
   14.4959     55.82     53.71    -24.53     18.05
   14.5061     55.55     53.80    -24.89     18.05
   14.5163     55.40     53.90    -25.13     18.05
   14.5264     56.39     53.99    -24.23     18.04
   14.5366     56.64     54.08    -24.07     18.04
   14.5468     57.20     54.17    -23.60     18.04
   14.5569     56.79     54.26    -24.11     18.04
   14.5671     56.57     54.35    -24.42     18.04
   14.5773     57.38     54.45    -23.70     18.04
   14.5874     57.55     54.54    -23.63     18.04
   14.5976     56.54     54.63    -24.73     18.04
   14.6078     57.46     54.73    -23.90     18.04
   14.6179     57.12     54.82    -24.34     18.04
   14.6281     56.77     54.92    -24.79     18.04
   14.6382     57.10     55.02    -24.55     18.04
   14.6484     56.68     55.11    -25.07     18.03
   14.6586     57.57     55.21    -24.28     18.03
   14.6687     57.83     55.31    -24.11     18.03
   14.6789     58.72     55.41    -23.32     18.03
   14.6891     58.49     55.50    -23.65     18.03
   14.6992     57.97     55.60    -24.27     18.03
   14.7094     57.60     55.70    -24.74     18.03
   14.7196     57.79     55.81    -24.65     18.03
   14.7297     57.95     55.91    -24.59     18.03
   14.7399     57.87     56.01    -24.77     18.03
   14.7501     58.86     56.11    -23.89     18.03
   14.7602     58.84     56.21    -24.01     18.03
   14.7704     59.12     56.32    -23.83     18.02
   14.7805     58.28     56.42    -24.78     18.02
   14.7907     59.78     56.53    -23.38     18.02
   14.8009     59.54     56.63    -23.73     18.02
   14.8110     58.56     56.74    -24.81     18.02
   14.8212     60.49     56.85    -22.99     18.02
   14.8314     60.03     56.95    -23.56     18.02
   14.8415     58.64     57.06    -25.06     18.02
   14.8517     60.52     57.17    -23.29     18.02
   14.8619     60.58     57.28    -23.34     18.02
   14.8720     61.66     57.39    -22.37     18.02
   14.8822     62.29     57.50    -21.85     18.02
   14.8924     61.01     57.62    -23.24     18.01
   14.9025     61.79     57.73    -22.57     18.01
   14.9127     60.34     57.84    -24.14     18.01
   14.9229     61.74     57.96    -22.85     18.01
   14.9330     60.66     58.07    -24.05     18.01
   14.9432     62.60     58.19    -22.22     18.01
   14.9533     62.35     58.30    -22.59     18.01
   14.9635     61.18     58.42    -23.88     18.01
   14.9737     61.54     58.54    -23.64     18.01
   14.9838     62.77     58.66    -22.53     18.01
   14.9940     61.15     58.78    -24.27     18.01
   15.0042     61.41     58.90    -24.13     18.01
   15.0143     61.44     59.02    -24.22     18.00
   15.0245     62.75     59.14    -23.03     18.00
   15.0347     61.28     59.27    -24.62     18.00
   15.0448     62.96     59.39    -23.07     18.00
   15.0550     64.03     59.52    -22.12     18.00
   15.0652     62.61     59.64    -23.67     18.00
   15.0753     63.60     59.77    -22.81     18.00
   15.0855     63.18     59.90    -23.36     18.00
   15.0956     63.43     60.03    -23.23     18.00
   15.1058     63.58     60.16    -23.21     18.00
   15.1160     63.44     60.29    -23.48     18.00
   15.1261     63.91     60.42    -23.15     18.00
   15.1363     63.69     60.55    -23.50     17.99
   15.1465     64.24     60.69    -23.08     17.99
   15.1566     63.02     60.82    -24.44     17.99
   15.1668     65.49     60.96    -22.10     17.99
   15.1770     64.02     61.09    -23.71     17.99
   15.1871     64.65     61.23    -23.22     17.99
   15.1973     65.26     61.37    -22.75     17.99
   15.2075     66.57     61.51    -21.58     17.99
   15.2176     63.55     61.65    -24.74     17.99
   15.2278     65.76     61.79    -22.67     17.99
   15.2380     64.90     61.93    -23.67     17.99
   15.2481     65.52     62.08    -23.19     17.99
   15.2583     65.60     62.22    -23.26     17.98
   15.2684     65.28     62.37    -23.72     17.98
   15.2786     67.35     62.52    -21.80     17.98
   15.2888     66.45     62.66    -22.85     17.98
   15.2989     66.32     62.81    -23.13     17.98
   15.3091     66.32     62.96    -23.28     17.98
   15.3193     67.57     63.12    -22.18     17.98
   15.3294     65.84     63.27    -24.06     17.98
   15.3396     66.82     63.42    -23.24     17.98
   15.3498     67.63     63.58    -22.58     17.98
   15.3599     66.49     63.73    -23.88     17.98
   15.3701     66.94     63.89    -23.58     17.98
   15.3803     67.40     64.05    -23.28     17.97
   15.3904     66.82     64.21    -24.02     17.97
   15.4006     67.33     64.37    -23.67     17.97
   15.4107     67.38     64.53    -23.78     17.97
   15.4209     68.16     64.69    -23.17     17.97
   15.4311     67.71     64.86    -23.78     17.97
   15.4412     68.21     65.02    -23.45     17.97
   15.4514     68.43     65.19    -23.39     17.97
   15.4616     68.07     65.36    -23.92     17.97
   15.4717     69.18     65.52    -22.98     17.97
   15.4819     69.38     65.69    -22.95     17.97
   15.4921     68.74     65.87    -23.76     17.96
   15.5022     68.91     66.04    -23.76     17.96
   15.5124     69.10     66.21    -23.75     17.96
   15.5226     69.81     66.39    -23.21     17.96
   15.5327     68.60     66.56    -24.60     17.96
   15.5429     70.47     66.74    -22.91     17.96
   15.5530     69.99     66.92    -23.56     17.96
   15.5632     69.54     67.10    -24.19     17.96
   15.5734     69.90     67.28    -24.02     17.96
   15.5835     70.24     67.46    -23.86     17.96
   15.5937     70.47     67.65    -23.81     17.96
   15.6039     70.96     67.83    -23.51     17.96
   15.6140     70.63     68.02    -24.02     17.95
   15.6242     71.78     68.20    -23.06     17.95
   15.6344     72.04     68.39    -22.99     17.95
   15.6445     72.47     68.58    -22.75     17.95
   15.6547     70.80     68.77    -24.61     17.95
   15.6649     72.09     68.97    -23.51     17.95
   15.6750     72.31     69.16    -23.48     17.95
   15.6852     72.45     69.35    -23.54     17.95
   15.6954     72.61     69.55    -23.58     17.95
   15.7055     73.25     69.75    -23.13     17.95
   15.7157     71.69     69.95    -24.89     17.95
   15.7258     72.80     70.14    -23.98     17.95
   15.7360     73.07     70.35    -23.91     17.94
   15.7462     72.85     70.55    -24.33     17.94
   15.7563     72.25     70.75    -25.14     17.94
   15.7665     72.45     70.96    -25.14     17.94
   15.7767     74.05     71.16    -23.75     17.94
   15.7868     73.28     71.37    -24.72     17.94
   15.7970     74.29     71.58    -23.92     17.94
   15.8072     73.55     71.79    -24.87     17.94
   15.8173     74.46     72.00    -24.17     17.94
   15.8275     73.17     72.21    -25.67     17.94
   15.8377     75.25     72.42    -23.81     17.94
   15.8478     74.40     72.63    -24.87     17.94
   15.8580     75.10     72.85    -24.39     17.93
   15.8681     75.23     73.06    -24.47     17.93
   15.8783     74.20     73.28    -25.72     17.93
   15.8885     74.65     73.50    -25.49     17.93
   15.8986     75.59     73.72    -24.77     17.93
   15.9088     74.87     73.94    -25.71     17.93
   15.9190     76.15     74.16    -24.65     17.93
   15.9291     76.38     74.39    -24.64     17.93
   15.9393     74.65     74.61    -26.60     17.93
   15.9495     76.42     74.84    -25.05     17.93
   15.9596     76.74     75.06    -24.96     17.93
   15.9698     74.98     75.29    -26.95     17.93
   15.9800     76.54     75.52    -25.61     17.92
   15.9901     77.71     75.75    -24.67     17.92
   16.0003     77.51     75.98    -25.10     17.92
   16.0105     77.73     76.21    -25.12     17.92
   16.0206     76.77     76.44    -26.31     17.92
   16.0308     77.25     76.67    -26.06     17.92
   16.0409     78.74     76.91    -24.80     17.92
   16.0511     78.00     77.14    -25.78     17.92
   16.0613     78.51     77.38    -25.51     17.92
   16.0714     78.27     77.61    -25.98     17.92
   16.0816     78.65     77.85    -25.84     17.92
   16.0918     79.08     78.09    -25.65     17.92
   16.1019     78.76     78.33    -26.21     17.91
   16.1121     79.20     78.57    -26.01     17.91
   16.1223     78.56     78.81    -26.89     17.91
   16.1324     78.54     79.05    -27.15     17.91
   16.1426     80.07     79.30    -25.86     17.91
   16.1528     78.69     79.54    -27.48     17.91
   16.1629     80.09     79.78    -26.33     17.91
   16.1731     80.40     80.03    -26.26     17.91
   16.1832     80.76     80.27    -26.15     17.91
   16.1934     79.93     80.52    -27.22     17.91
   16.2036     80.38     80.76    -27.02     17.91
   16.2137     80.33     81.01    -27.31     17.91
   16.2239     81.10     81.26    -26.79     17.90
   16.2341     81.63     81.51    -26.51     17.90
   16.2442     82.50     81.75    -25.89     17.90
   16.2544     81.74     82.00    -26.90     17.90
   16.2646     81.80     82.25    -27.09     17.90
   16.2747     81.41     82.50    -27.73     17.90
   16.2849     81.88     82.75    -27.51     17.90
   16.2951     81.67     83.00    -27.97     17.90
   16.3052     83.05     83.25    -26.84     17.90
   16.3154     85.16     83.50    -24.98     17.90
   16.3256     82.99     83.75    -27.40     17.90
   16.3357     83.52     84.00    -27.12     17.90
   16.3459     85.03     84.25    -25.86     17.89
   16.3560     84.70     84.50    -26.44     17.89
   16.3662     82.73     84.76    -28.66     17.89
   16.3764     84.93     85.01    -26.72     17.89
   16.3865     83.83     85.26    -28.07     17.89
   16.3967     86.66     85.51    -25.49     17.89
   16.4069     85.16     85.76    -27.24     17.89
   16.4170     84.39     86.01    -28.26     17.89
   16.4272     84.88     86.27    -28.02     17.89
   16.4374     85.51     86.52    -27.64     17.89
   16.4475     86.21     86.77    -27.19     17.89
   16.4577     86.37     87.02    -27.28     17.89
   16.4679     85.64     87.27    -28.27     17.88
   16.4780     86.65     87.52    -27.50     17.88
   16.4882     86.80     87.77    -27.60     17.88
   16.4983     86.41     88.02    -28.24     17.88
   16.5085     88.38     88.27    -26.52     17.88
   16.5187     87.33     88.51    -27.82     17.88
   16.5288     87.86     88.76    -27.54     17.88
   16.5390     88.46     89.01    -27.18     17.88
   16.5492     86.55     89.26    -29.34     17.88
   16.5593     88.38     89.50    -27.76     17.88
   16.5695     88.57     89.75    -27.81     17.88
   16.5797     88.18     89.99    -28.45     17.88
   16.5898     89.25     90.23    -27.62     17.87
   16.6000     90.71     90.48    -26.40     17.87
   16.6102     88.05     90.72    -29.30     17.87
   16.6203     89.13     90.96    -28.46     17.87
   16.6305     90.43     91.20    -27.40     17.87
   16.6407     88.80     91.44    -29.27     17.87
   16.6508     90.32     91.67    -27.99     17.87
   16.6610     90.95     91.91    -27.59     17.87
   16.6711     89.34     92.14    -29.44     17.87
   16.6813     91.90     92.37    -27.11     17.87
   16.6915     91.64     92.61    -27.60     17.87
   16.7016     90.20     92.84    -29.27     17.86
   16.7118     90.79     93.07    -28.91     17.86
   16.7220     93.54     93.30    -26.39     17.86
   16.7321     91.45     93.52    -28.71     17.86
   16.7423     92.44     93.75    -27.94     17.86
   16.7525     91.08     93.97    -29.53     17.86
   16.7626     92.87     94.19    -27.96     17.86
   16.7728     92.57     94.41    -28.48     17.86
   16.7830     93.59     94.63    -27.67     17.86
   16.7931     93.34     94.84    -28.14     17.86
   16.8033     94.61     95.06    -27.08     17.86
   16.8134     94.06     95.27    -27.84     17.86
   16.8236     92.79     95.48    -29.33     17.85
   16.8338     93.99     95.69    -28.33     17.85
   16.8439     94.28     95.89    -28.25     17.85
   16.8541     94.27     96.10    -28.46     17.85
   16.8643     94.76     96.30    -28.18     17.85
   16.8744     95.61     96.50    -27.53     17.85
   16.8846     94.31     96.70    -29.02     17.85
   16.8948     94.71     96.89    -28.82     17.85
   16.9049     96.16     97.09    -27.56     17.85
   16.9151     95.71     97.28    -28.20     17.85
   16.9253     95.53     97.47    -28.57     17.85
   16.9354     95.22     97.65    -29.07     17.85
   16.9456     97.02     97.84    -27.45     17.84
   16.9558     95.16     98.02    -29.50     17.84
   16.9659     97.12     98.20    -27.71     17.84
   16.9761     96.04     98.38    -28.97     17.84
   16.9862     95.45     98.55    -29.74     17.84
   16.9964     97.10     98.72    -28.26     17.84
   17.0066     95.65     98.89    -29.88     17.84
   17.0167     96.58     99.06    -29.11     17.84
   17.0269     97.06     99.22    -28.80     17.84
   17.0371     96.79     99.39    -29.23     17.84
   17.0472     98.73     99.55    -27.45     17.84
   17.0574     97.79     99.70    -28.55     17.84
   17.0676     98.36     99.86    -28.14     17.83
   17.0777     95.95    100.01    -30.70     17.83
   17.0879     98.23    100.16    -28.57     17.83
   17.0981     98.52    100.31    -28.43     17.83
   17.1082     99.09    100.46    -28.00     17.83
   17.1184     97.97    100.60    -29.27     17.83
   17.1285     99.98    100.74    -27.40     17.83
   17.1387    100.47    100.88    -27.05     17.83
   17.1489     99.93    101.02    -27.72     17.83
   17.1590     98.55    101.15    -29.24     17.83
   17.1692     99.33    101.28    -28.59     17.83
   17.1794     99.87    101.42    -28.18     17.83
   17.1895     99.56    101.54    -28.62     17.82
   17.1997    100.22    101.67    -28.09     17.82
   17.2099    100.21    101.80    -28.22     17.82
   17.2200    100.04    101.92    -28.52     17.82
   17.2302    101.37    102.04    -27.31     17.82
   17.2404    102.46    102.17    -26.34     17.82
   17.2505    101.45    102.29    -27.47     17.82
   17.2607    101.41    102.40    -27.63     17.82
   17.2709    101.98    102.52    -27.18     17.82
   17.2810    101.05    102.64    -28.23     17.82
   17.2912    102.84    102.76    -26.55     17.82
   17.3013    102.72    102.87    -26.79     17.82
   17.3115    101.48    102.99    -28.14     17.81
   17.3217    103.92    103.10    -25.82     17.81
   17.3318    104.21    103.22    -25.64     17.81
   17.3420    103.79    103.33    -26.18     17.81
   17.3522    104.07    103.45    -26.02     17.81
   17.3623    105.60    103.57    -24.60     17.81
   17.3725    102.03    103.69    -28.29     17.81
   17.3827    105.96    103.81    -24.48     17.81
   17.3928    106.21    103.93    -24.35     17.81
   17.4030    103.39    104.05    -27.30     17.81
   17.4132    104.22    104.18    -26.59     17.81
   17.4233    104.90    104.30    -26.04     17.81
   17.4335    105.48    104.43    -25.59     17.80
   17.4436    106.21    104.57    -24.99     17.80
   17.4538    106.54    104.71    -24.80     17.80
   17.4640    106.49    104.85    -25.00     17.80
   17.4741    107.70    104.99    -23.93     17.80
   17.4843    107.89    105.15    -23.89     17.80
   17.4945    107.20    105.30    -24.74     17.80
   17.5046    106.23    105.47    -25.87     17.80
   17.5148    108.80    105.64    -23.47     17.80
   17.5250    107.54    105.81    -24.91     17.80
   17.5351    108.07    106.00    -24.56     17.80
   17.5453    109.95    106.19    -22.88     17.80
   17.5555    108.43    106.39    -24.60     17.79
   17.5656    109.10    106.60    -24.14     17.79
   17.5758    110.39    106.82    -23.07     17.79
   17.5859    108.87    107.06    -24.82     17.79
   17.5961    110.66    107.30    -23.28     17.79
   17.6063    112.02    107.56    -22.17     17.79
   17.6164    112.32    107.83    -22.14     17.79
   17.6266    110.25    108.11    -24.50     17.79
   17.6368    113.07    108.41    -21.98     17.79
   17.6469    111.38    108.72    -23.98     17.79
   17.6571    111.70    109.05    -23.99     17.79
   17.6673    113.37    109.40    -22.67     17.79
   17.6774    113.04    109.77    -23.37     17.78
   17.6876    114.21    110.16    -22.58     17.78
   17.6978    115.98    110.57    -21.22     17.78
   17.7079    114.51    110.99    -23.12     17.78
   17.7181    114.84    111.45    -23.24     17.78
   17.7283    117.78    111.92    -20.78     17.78
   17.7384    116.36    112.42    -22.70     17.78
   17.7486    116.87    112.95    -22.71     17.78
   17.7587    117.90    113.50    -22.23     17.78
   17.7689    117.57    114.08    -23.15     17.78
   17.7791    117.21    114.69    -24.12     17.78
   17.7892    119.73    115.33    -22.23     17.78
   17.7994    119.11    116.00    -23.53     17.77
   17.8096    119.68    116.71    -23.67     17.77
   17.8197    121.96    117.45    -22.12     17.77
   17.8299    120.30    118.22    -24.56     17.77
   17.8401    120.93    119.04    -24.74     17.77
   17.8502    124.22    119.88    -22.29     17.77
   17.8604    123.58    120.77    -23.82     17.77
   17.8706    124.21    121.70    -24.12     17.77
   17.8807    126.49    122.66    -22.80     17.77
   17.8909    126.01    123.67    -24.30     17.77
   17.9010    125.23    124.72    -26.12     17.77
   17.9112    127.09    125.81    -25.36     17.76
   17.9214    127.50    126.96    -26.10     17.76
   17.9315    126.89    128.14    -27.88     17.76
   17.9417    130.50    129.38    -25.51     17.76
   17.9519    130.02    130.66    -27.28     17.76
   17.9620    129.64    131.98    -28.98     17.76
   17.9722    132.05    133.36    -27.95     17.76
   17.9824    131.70    134.80    -29.73     17.76
   17.9925    134.91    136.26    -27.99     17.76
   18.0027    134.94    137.80    -29.49     17.76
   18.0129    135.21    139.38    -30.81     17.76
   18.0230    137.09    141.00    -30.55     17.76
   18.0332    138.07    142.69    -31.25     17.75
   18.0434    136.11    144.43    -34.95     17.75
   18.0535    139.40    146.20    -33.44     17.75
   18.0637    142.32    148.04    -32.36     17.75
   18.0738    141.43    149.92    -35.12     17.75
   18.0840    142.52    151.86    -35.98     17.75
   18.0942    145.25    153.86    -35.24     17.75
   18.1043    147.22    155.88    -35.30     17.75
   18.1145    146.60    157.97    -38.01     17.75
   18.1247    151.59    160.11    -35.16     17.75
   18.1348    151.76    162.28    -37.16     17.75
   18.1450    153.32    164.51    -37.83     17.75
   18.1552    155.45    166.79    -37.98     17.74
   18.1653    157.07    169.09    -38.66     17.74
   18.1755    157.77    171.45    -40.32     17.74
   18.1857    159.91    173.86    -40.58     17.74
   18.1958    160.52    176.27    -42.39     17.74
   18.2060    162.48    178.74    -42.90     17.74
   18.2161    167.20    181.22    -40.66     17.74
   18.2263    168.38    183.76    -42.02     17.74
   18.2365    169.20    186.32    -43.76     17.74
   18.2466    172.60    188.88    -42.92     17.74
   18.2568    173.76    191.49    -44.36     17.74
   18.2670    177.41    194.11    -43.34     17.74
   18.2771    181.70    196.72    -41.66     17.73
   18.2873    181.87    199.37    -44.14     17.73
   18.2975    183.20    202.02    -45.46     17.73
   18.3076    188.63    204.65    -42.65     17.73
   18.3178    190.40    207.30    -43.53     17.73
   18.3280    192.07    209.94    -44.50     17.73
   18.3381    196.83    212.54    -42.34     17.73
   18.3483    197.80    215.14    -43.98     17.73
   18.3585    201.24    217.72    -43.12     17.73
   18.3686    204.27    220.25    -42.62     17.73
   18.3788    208.45    222.77    -40.95     17.73
   18.3889    207.06    225.21    -44.79     17.73
   18.3991    213.96    227.64    -40.31     17.72
   18.4093    217.17    230.01    -39.47     17.72
   18.4194    217.02    232.29    -41.90     17.72
   18.4296    223.79    234.52    -37.37     17.72
   18.4398    226.39    236.68    -36.93     17.72
   18.4499    225.89    238.74    -39.48     17.72
   18.4601    232.06    240.72    -35.30     17.72
   18.4703    234.91    242.61    -34.33     17.72
   18.4804    237.90    244.37    -33.11     17.72
   18.4906    242.79    246.04    -29.89     17.72
   18.5008    242.39    247.60    -31.84     17.72
   18.5109    247.09    249.01    -28.56     17.72
   18.5211    249.01    250.31    -27.94     17.71
   18.5312    251.09    251.46    -27.01     17.71
   18.5414    252.46    252.49    -26.66     17.71
   18.5516    256.11    253.36    -23.89     17.71
   18.5617    256.98    254.09    -23.74     17.71
   18.5719    258.78    254.66    -22.52     17.71
   18.5821    260.29    255.08    -21.43     17.71
   18.5922    263.19    255.34    -18.79     17.71
   18.6024    264.03    255.45    -18.05     17.71
   18.6126    264.62    255.39    -17.41     17.71
   18.6227    264.74    255.18    -17.08     17.71
   18.6329    264.27    254.81    -17.18     17.71
   18.6431    265.84    254.28    -15.08     17.70
   18.6532    266.98    253.61    -13.27     17.70
   18.6634    264.93    252.78    -14.49     17.70
   18.6736    265.22    251.81    -13.22     17.70
   18.6837    263.24    250.70    -14.10     17.70
   18.6939    260.99    249.45    -15.09     17.70
   18.7040    264.99    248.08     -9.72     17.70
   18.7142    260.55    246.57    -12.65     17.70
   18.7244    259.41    244.94    -12.17     17.70
   18.7345    258.49    243.22    -11.36     17.70
   18.7447    257.96    241.37    -10.05     17.70
   18.7549    255.99    239.43    -10.07     17.70
   18.7650    250.49    237.41    -13.56     17.69
   18.7752    249.60    235.29    -12.33     17.69
   18.7854    245.94    233.10    -13.79     17.69
   18.7955    242.91    230.85    -14.58     17.69
   18.8057    241.73    228.52    -13.43     17.69
   18.8159    237.83    226.14    -14.94     17.69
   18.8260    234.32    223.73    -16.04     17.69
   18.8362    231.87    221.25    -16.02     17.69
   18.8463    226.82    218.76    -18.58     17.69
   18.8565    225.50    216.22    -17.35     17.69
   18.8667    222.85    213.65    -17.44     17.69
   18.8768    217.27    211.09    -20.46     17.69
   18.8870    217.90    208.49    -17.23     17.68
   18.8972    216.77    205.88    -15.75     17.68
   18.9073    208.70    203.30    -21.24     17.68
   18.9175    207.98    200.69    -19.35     17.68
   18.9277    205.04    198.09    -19.69     17.68
   18.9378    199.79    195.53    -22.37     17.68
   18.9480    198.59    192.95    -21.00     17.68
   18.9582    196.99    190.39    -20.04     17.68
   18.9683    192.71    187.88    -21.81     17.68
   18.9785    191.24    185.37    -20.77     17.68
   18.9887    184.91    182.89    -24.62     17.68
   18.9988    181.82    180.47    -25.29     17.68
   19.0090    184.42    178.06    -20.27     17.67
   19.0191    179.29    175.71    -23.05     17.67
   19.0293    177.81    173.37    -22.20     17.67
   19.0395    175.87    171.08    -21.84     17.67
   19.0496    173.81    168.85    -21.68     17.67
   19.0598    170.35    166.65    -22.93     17.67
   19.0700    169.30    164.49    -21.82     17.67
   19.0801    167.49    162.40    -21.55     17.67
   19.0903    165.79    160.34    -21.19     17.67
   19.1005    163.67    158.34    -21.30     17.67
   19.1106    159.41    156.41    -23.63     17.67
   19.1208    157.17    154.51    -23.97     17.66
   19.1310    157.65    152.66    -21.65     17.66
   19.1411    154.50    150.89    -23.02     17.66
   19.1513    153.82    149.15    -21.97     17.66
   19.1614    153.51    147.49    -20.61     17.66
   19.1716    151.49    145.86    -21.01     17.66
   19.1818    150.71    144.29    -20.22     17.66
   19.1919    149.51    142.80    -19.92     17.66
   19.2021    147.76    141.34    -20.22     17.66
   19.2123    145.94    139.94    -20.64     17.66
   19.2224    145.38    138.61    -19.86     17.66
   19.2326    143.27    137.32    -20.68     17.66
   19.2428    142.60    136.08    -20.12     17.65
   19.2529    141.04    134.91    -20.51     17.65
   19.2631    139.53    133.78    -20.89     17.65
   19.2733    139.05    132.70    -20.29     17.65
   19.2834    139.19    131.69    -19.14     17.65
   19.2936    138.71    130.72    -18.64     17.65
   19.3038    135.74    129.79    -20.69     17.65
   19.3139    136.62    128.93    -18.94     17.65
   19.3241    135.18    128.10    -19.56     17.65
   19.3342    132.85    127.33    -21.12     17.65
   19.3444    134.82    126.60    -18.41     17.65
   19.3546    132.07    125.91    -20.48     17.65
   19.3647    131.79    125.27    -20.12     17.64
   19.3749    131.86    124.67    -19.45     17.64
   19.3851    130.69    124.11    -20.06     17.64
   19.3952    130.52    123.60    -19.72     17.64
   19.4054    129.75    123.12    -20.01     17.64
   19.4156    130.61    122.68    -18.71     17.64
   19.4257    128.71    122.28    -20.21     17.64
   19.4359    129.31    121.92    -19.24     17.64
   19.4461    128.38    121.59    -19.84     17.64
   19.4562    129.04    121.29    -18.89     17.64
   19.4664    127.26    121.03    -20.40     17.64
   19.4765    127.56    120.79    -19.87     17.64
   19.4867    125.99    120.59    -21.24     17.63
   19.4969    126.49    120.42    -20.56     17.63
   19.5070    126.45    120.27    -20.46     17.63
   19.5172    124.42    120.15    -22.37     17.63
   19.5274    126.23    120.06    -20.47     17.63
   19.5375    123.47    119.99    -23.16     17.63
   19.5477    124.60    119.95    -21.98     17.63
   19.5579    125.05    119.93    -21.51     17.63
   19.5680    123.58    119.93    -22.99     17.63
   19.5782    122.36    119.95    -24.23     17.63
   19.5884    123.73    120.00    -22.90     17.63
   19.5985    121.38    120.06    -25.31     17.63
   19.6087    122.09    120.14    -24.68     17.62
   19.6188    122.46    120.23    -24.41     17.62
   19.6290    123.37    120.35    -23.62     17.62
   19.6392    122.07    120.48    -25.05     17.62
   19.6493    123.81    120.63    -23.45     17.62
   19.6595    120.80    120.79    -26.62     17.62
   19.6697    120.99    120.96    -26.61     17.62
   19.6798    122.15    121.15    -25.63     17.62
   19.6900    121.00    121.35    -26.98     17.62
   19.7002    120.96    121.56    -27.24     17.62
   19.7103    122.54    121.78    -25.88     17.62
   19.7205    121.78    122.01    -26.87     17.62
   19.7307    120.67    122.26    -28.22     17.61
   19.7408    120.57    122.51    -28.57     17.61
   19.7510    121.90    122.77    -27.51     17.61
   19.7612    120.85    123.04    -28.83     17.61
   19.7713    120.16    123.31    -29.79     17.61
   19.7815    121.35    123.60    -28.89     17.61
   19.7916    119.70    123.89    -30.82     17.61
   19.8018    121.72    124.18    -29.10     17.61
   19.8120    121.87    124.49    -29.25     17.61
   19.8221    121.07    124.79    -30.36     17.61
   19.8323    122.82    125.11    -28.92     17.61
   19.8425    121.41    125.42    -30.65     17.61
   19.8526    121.57    125.74    -30.81     17.60
   19.8628    121.46    126.06    -31.24     17.60
   19.8730    120.57    126.39    -32.46     17.60
   19.8831    121.40    126.72    -31.95     17.60
   19.8933    122.52    127.05    -31.17     17.60
   19.9035    122.76    127.38    -31.26     17.60
   19.9136    122.65    127.72    -31.70     17.60
   19.9238    121.96    128.05    -32.73     17.60
   19.9339    123.25    128.39    -31.77     17.60
   19.9441    118.96    128.72    -36.40     17.60
   19.9543    122.19    129.06    -33.51     17.60
   19.9644    122.12    129.39    -33.91     17.60
   19.9746    122.18    129.73    -34.19     17.59
   19.9848    124.18    130.06    -32.52     17.59
   19.9949    122.27    130.39    -34.76     17.59
   20.0051    123.04    130.72    -34.32     17.59
   20.0153    122.93    131.05    -34.76     17.59
   20.0254    124.01    131.38    -34.00     17.59
   20.0356    123.45    131.70    -34.88     17.59
   20.0458    122.93    132.02    -35.72     17.59
   20.0559    125.20    132.33    -33.77     17.59
   20.0661    124.24    132.64    -35.04     17.59
   20.0763    126.73    132.95    -32.86     17.59
   20.0864    126.23    133.25    -33.65     17.59
   20.0966    124.60    133.55    -35.58     17.58
   20.1067    128.12    133.83    -32.35     17.58
   20.1169    127.23    134.12    -33.53     17.58
   20.1271    126.72    134.40    -34.32     17.58
   20.1372    128.41    134.67    -32.90     17.58
   20.1474    127.09    134.94    -34.48     17.58
   20.1576    127.93    135.20    -33.90     17.58
   20.1677    128.70    135.44    -33.38     17.58
   20.1779    126.96    135.69    -35.36     17.58
   20.1881    130.98    135.92    -31.58     17.58
   20.1982    130.66    136.15    -32.12     17.58
   20.2084    131.10    136.37    -31.90     17.58
   20.2186    130.38    136.58    -32.83     17.57
   20.2287    131.70    136.77    -31.71     17.57
   20.2389    131.73    136.97    -31.87     17.57
   20.2490    131.48    137.14    -32.30     17.57
   20.2592    134.16    137.31    -29.79     17.57
   20.2694    132.84    137.47    -31.27     17.57
   20.2795    134.42    137.62    -29.84     17.57
   20.2897    134.24    137.76    -30.16     17.57
   20.2999    133.98    137.89    -30.55     17.57
   20.3100    133.79    138.00    -30.85     17.57
   20.3202    137.41    138.11    -27.34     17.57
   20.3304    135.52    138.20    -29.32     17.56
   20.3405    135.40    138.28    -29.52     17.56
   20.3507    137.34    138.35    -27.65     17.56
   20.3609    136.57    138.41    -28.48     17.56
   20.3710    138.17    138.46    -26.92     17.56
   20.3812    138.60    138.49    -26.53     17.56
   20.3914    138.21    138.51    -26.94     17.56
   20.4015    138.37    138.52    -26.78     17.56
   20.4117    139.33    138.51    -25.82     17.56
   20.4218    139.21    138.50    -25.92     17.56
   20.4320    139.71    138.47    -25.40     17.56
   20.4422    141.13    138.43    -23.93     17.56
   20.4523    140.96    138.37    -24.05     17.55
   20.4625    139.87    138.31    -25.07     17.55
   20.4727    143.14    138.23    -21.72     17.55
   20.4828    142.48    138.14    -22.29     17.55
   20.4930    142.20    138.04    -22.47     17.55
   20.5032    143.16    137.92    -21.40     17.55
   20.5133    144.26    137.79    -20.17     17.55
   20.5235    142.22    137.65    -22.07     17.55
   20.5337    144.18    137.50    -19.96     17.55
   20.5438    145.01    137.34    -18.97     17.55
   20.5540    142.86    137.17    -20.94     17.55
   20.5641    144.18    136.98    -19.44     17.55
   20.5743    144.02    136.79    -19.40     17.54
   20.5845    142.49    136.58    -20.72     17.54
   20.5946    143.00    136.36    -20.00     17.54
   20.6048    143.60    136.13    -19.17     17.54
   20.6150    144.56    135.90    -17.97     17.54
   20.6251    143.66    135.65    -18.63     17.54
   20.6353    143.92    135.39    -18.11     17.54
   20.6455    142.40    135.13    -19.36     17.54
   20.6556    143.55    134.85    -17.94     17.54
   20.6658    142.99    134.57    -18.21     17.54
   20.6760    142.78    134.27    -18.13     17.54
   20.6861    141.62    133.98    -18.99     17.54
   20.6963    143.72    133.67    -16.58     17.53
   20.7065    141.55    133.35    -18.44     17.53
   20.7166    140.53    133.03    -19.13     17.53
   20.7268    142.82    132.70    -16.51     17.53
   20.7369    140.45    132.36    -18.55     17.53
   20.7471    139.76    132.02    -18.90     17.53
   20.7573    139.07    131.67    -19.24     17.53
   20.7674    138.63    131.32    -19.33     17.53
   20.7776    135.86    130.96    -21.74     17.53
   20.7878    138.35    130.60    -18.88     17.53
   20.7979    137.80    130.23    -19.07     17.53
   20.8081    137.51    129.86    -18.98     17.53
   20.8183    134.75    129.48    -21.37     17.52
   20.8284    134.15    129.10    -21.59     17.52
   20.8386    134.46    128.72    -20.89     17.52
   20.8488    135.41    128.33    -19.56     17.52
   20.8589    131.44    127.95    -23.14     17.52
   20.8691    131.09    127.55    -23.10     17.52
   20.8792    131.82    127.16    -21.98     17.52
   20.8894    131.70    126.77    -21.71     17.52
   20.8996    131.79    126.37    -21.22     17.52
   20.9097    129.01    125.98    -23.61     17.52
   20.9199    129.43    125.58    -22.79     17.52
   20.9301    127.61    125.19    -24.21     17.52
   20.9402    128.20    124.79    -23.23     17.51
   20.9504    124.01    124.40    -27.02     17.51
   20.9606    127.26    124.00    -23.38     17.51
   20.9707    126.37    123.61    -23.87     17.51
   20.9809    125.65    123.21    -24.20     17.51
   20.9911    121.40    122.82    -28.06     17.51
   21.0012    122.96    122.44    -26.11     17.51
   21.0114    120.79    122.05    -27.90     17.51
   21.0216    122.97    121.67    -25.33     17.51
   21.0317    120.77    121.29    -27.15     17.51
   21.0419    119.94    120.91    -27.61     17.51
   21.0520    120.32    120.54    -26.85     17.51
   21.0622    120.30    120.17    -26.50     17.50
   21.0724    118.91    119.80    -27.53     17.50
   21.0825    119.80    119.44    -26.28     17.50
   21.0927    118.06    119.09    -27.66     17.50
   21.1029    116.76    118.74    -28.61     17.50
   21.1130    117.15    118.39    -27.88     17.50
   21.1232    117.40    118.05    -27.29     17.50
   21.1334    115.30    117.72    -29.06     17.50
   21.1435    115.45    117.40    -28.58     17.50
   21.1537    114.77    117.08    -28.94     17.50
   21.1639    113.90    116.76    -29.50     17.50
   21.1740    116.02    116.46    -27.08     17.50
   21.1842    113.54    116.16    -29.26     17.49
   21.1943    112.84    115.87    -29.67     17.49
   21.2045    113.98    115.59    -28.25     17.49
   21.2147    113.07    115.32    -28.89     17.49
   21.2248    112.56    115.06    -29.13     17.49
   21.2350    113.45    114.80    -27.99     17.49
   21.2452    112.61    114.56    -28.58     17.49
   21.2553    110.70    114.33    -30.26     17.49
   21.2655    112.27    114.10    -28.47     17.49
   21.2757    112.62    113.89    -27.90     17.49
   21.2858    109.77    113.68    -30.55     17.49
   21.2960    111.99    113.49    -28.14     17.49
   21.3062    111.76    113.31    -28.19     17.48
   21.3163    110.60    113.14    -29.18     17.48
   21.3265    110.41    112.98    -29.21     17.48
   21.3366    109.35    112.84    -30.13     17.48
   21.3468    109.43    112.71    -29.91     17.48
   21.3570    108.99    112.59    -30.24     17.48
   21.3671    109.76    112.48    -29.36     17.48
   21.3773    108.65    112.39    -30.38     17.48
   21.3875    111.13    112.31    -27.82     17.48
   21.3976    108.91    112.25    -29.97     17.48
   21.4078    107.60    112.20    -31.23     17.48
   21.4180    108.28    112.16    -30.52     17.48
   21.4281    108.15    112.14    -30.63     17.47
   21.4383    107.96    112.13    -30.81     17.47
   21.4485    110.52    112.14    -28.26     17.47
   21.4586    110.21    112.17    -28.59     17.47
   21.4688    107.95    112.21    -30.90     17.47
   21.4790    108.91    112.27    -29.99     17.47
   21.4891    108.33    112.34    -30.65     17.47
   21.4993    107.08    112.43    -31.99     17.47
   21.5094    110.32    112.54    -28.85     17.47
   21.5196    110.41    112.66    -28.89     17.47
   21.5298    108.16    112.80    -31.28     17.47
   21.5399    109.49    112.96    -30.10     17.46
   21.5501    110.73    113.13    -29.04     17.46
   21.5603    107.70    113.33    -32.26     17.46
   21.5704    110.12    113.54    -30.05     17.46
   21.5806    112.40    113.77    -28.00     17.46
   21.5908    109.90    114.02    -30.75     17.46
   21.6009    111.54    114.28    -29.38     17.46
   21.6111    111.37    114.57    -29.83     17.46
   21.6213    110.30    114.87    -31.21     17.46
   21.6314    112.27    115.19    -29.56     17.46
   21.6416    112.27    115.53    -29.90     17.46
   21.6517    112.04    115.89    -30.48     17.46
   21.6619    112.47    116.27    -30.43     17.45
   21.6721    112.90    116.66    -30.40     17.45
   21.6822    112.28    117.08    -31.43     17.45
   21.6924    114.32    117.51    -29.83     17.45
   21.7026    115.04    117.97    -29.56     17.45
   21.7127    113.00    118.43    -32.07     17.45
   21.7229    114.15    118.92    -31.41     17.45
   21.7331    116.98    119.43    -29.09     17.45
   21.7432    115.61    119.96    -30.98     17.45
   21.7534    116.56    120.50    -30.58     17.45
   21.7636    117.33    121.07    -30.38     17.45
   21.7737    116.95    121.65    -31.33     17.45
   21.7839    118.46    122.25    -30.42     17.44
   21.7941    120.23    122.87    -29.27     17.44
   21.8042    120.02    123.50    -30.11     17.44
   21.8144    121.11    124.15    -29.67     17.44
   21.8245    123.59    124.81    -27.86     17.44
   21.8347    121.53    125.50    -30.60     17.44
   21.8449    122.30    126.20    -30.54     17.44
   21.8550    123.35    126.91    -30.20     17.44
   21.8652    124.59    127.64    -29.69     17.44
   21.8754    124.70    128.39    -30.33     17.44
   21.8855    126.15    129.15    -29.63     17.44
   21.8957    125.55    129.93    -31.01     17.44
   21.9059    127.41    130.72    -29.94     17.43
   21.9160    129.84    131.51    -28.31     17.43
   21.9262    127.51    132.33    -31.45     17.43
   21.9364    129.36    133.16    -30.43     17.43
   21.9465    130.07    133.99    -30.55     17.43
   21.9567    130.30    134.84    -31.17     17.43
   21.9668    131.84    135.69    -30.48     17.43
   21.9770    134.82    136.56    -28.37     17.43
   21.9872    132.26    137.43    -31.81     17.43
   21.9973    135.02    138.31    -29.93     17.43
   22.0075    136.13    139.20    -29.71     17.43
   22.0177    136.43    140.10    -30.31     17.43
   22.0278    136.93    140.99    -30.70     17.42
   22.0380    138.58    141.90    -29.96     17.42
   22.0482    139.24    142.81    -30.21     17.42
   22.0583    140.87    143.71    -29.48     17.42
   22.0685    142.39    144.63    -28.87     17.42
   22.0787    142.40    145.54    -29.78     17.42
   22.0888    144.08    146.44    -29.00     17.42
   22.0990    145.09    147.35    -28.90     17.42
   22.1092    144.40    148.26    -30.50     17.42
   22.1193    147.48    149.15    -28.31     17.42
   22.1295    149.76    150.05    -26.93     17.42
   22.1396    147.98    150.93    -29.59     17.42
   22.1498    150.52    151.81    -27.93     17.41
   22.1600    152.98    152.68    -26.34     17.41
   22.1701    149.85    153.54    -30.32     17.41
   22.1803    153.53    154.38    -27.49     17.41
   22.1905    154.79    155.22    -27.06     17.41
   22.2006    153.85    156.03    -28.81     17.41
   22.2108    155.64    156.83    -27.82     17.41
   22.2210    159.60    157.61    -24.65     17.41
   22.2311    157.85    158.37    -27.15     17.41
   22.2413    158.98    159.11    -26.76     17.41
   22.2515    161.51    159.83    -24.95     17.41
   22.2616    158.88    160.51    -28.27     17.41
   22.2718    161.66    161.18    -26.16     17.40
   22.2819    162.90    161.81    -25.55     17.40
   22.2921    163.37    162.43    -25.69     17.40
   22.3023    162.38    163.01    -27.26     17.40
   22.3124    162.19    163.55    -27.99     17.40
   22.3226    162.66    164.06    -28.04     17.40
   22.3328    167.44    164.54    -23.74     17.40
   22.3429    168.28    164.98    -23.34     17.40
   22.3531    164.44    165.39    -27.58     17.40
   22.3633    167.24    165.75    -25.15     17.40
   22.3734    168.41    166.08    -24.30     17.40
   22.3836    163.16    166.36    -29.84     17.40
   22.3938    166.82    166.61    -26.42     17.39
   22.4039    169.24    166.81    -24.20     17.39
   22.4141    167.38    166.97    -26.22     17.39
   22.4243    169.63    167.08    -24.08     17.39
   22.4344    169.07    167.15    -24.71     17.39
   22.4446    168.51    167.17    -25.30     17.39
   22.4547    170.93    167.15    -22.85     17.39
   22.4649    168.08    167.08    -25.63     17.39
   22.4751    168.20    166.96    -25.40     17.39
   22.4852    168.84    166.80    -24.60     17.39
   22.4954    168.01    166.60    -25.22     17.39
   22.5056    165.53    166.35    -27.45     17.39
   22.5157    168.51    166.05    -24.18     17.38
   22.5259    168.79    165.71    -23.55     17.38
   22.5361    166.62    165.32    -25.34     17.38
   22.5462    166.76    164.89    -24.77     17.38
   22.5564    165.59    164.42    -25.47     17.38
   22.5666    163.56    163.90    -26.98     17.38
   22.5767    163.82    163.35    -26.17     17.38
   22.5869    165.73    162.76    -23.66     17.38
   22.5970    160.85    162.13    -27.91     17.38
   22.6072    161.04    161.46    -27.05     17.38
   22.6174    162.68    160.75    -24.70     17.38
   22.6275    159.29    160.01    -27.35     17.38
   22.6377    159.11    159.23    -26.76     17.37
   22.6479    158.93    158.42    -26.13     17.37
   22.6580    156.82    157.59    -27.40     17.37
   22.6682    157.13    156.72    -26.22     17.37
   22.6784    156.57    155.82    -25.88     17.37
   22.6885    155.18    154.90    -26.36     17.37
   22.6987    156.02    153.95    -24.57     17.37
   22.7089    153.23    152.98    -26.38     17.37
   22.7190    151.24    151.99    -27.39     17.37
   22.7292    152.59    150.97    -25.02     17.37
   22.7394    150.56    149.94    -26.01     17.37
   22.7495    147.03    148.90    -28.50     17.36
   22.7597    147.76    147.83    -26.70     17.36
   22.7698    146.11    146.75    -27.28     17.36
   22.7800    144.66    145.65    -27.63     17.36
   22.7902    145.48    144.54    -25.70     17.36
   22.8003    142.68    143.43    -27.39     17.36
   22.8105    140.52    142.30    -28.42     17.36
   22.8207    142.99    141.16    -24.81     17.36
   22.8308    139.87    140.03    -26.80     17.36
   22.8410    140.13    138.88    -25.38     17.36
   22.8512    139.04    137.72    -25.32     17.36
   22.8613    139.16    136.57    -24.05     17.36
   22.8715    134.49    135.41    -27.55     17.35
   22.8817    135.71    134.24    -25.17     17.35
   22.8918    133.90    133.09    -25.83     17.35
   22.9020    131.76    131.93    -26.80     17.35
   22.9121    131.41    130.77    -26.00     17.35
   22.9223    131.75    129.61    -24.50     17.35
   22.9325    128.23    128.46    -26.86     17.35
   22.9426    131.45    127.31    -22.50     17.35
   22.9528    127.76    126.16    -25.04     17.35
   22.9630    125.74    125.02    -25.92     17.35
   22.9731    126.80    123.89    -23.73     17.35
   22.9833    125.03    122.76    -24.37     17.35
   22.9935    122.09    121.64    -26.18     17.34
   23.0036    124.24    120.53    -22.93     17.34
   23.0138    122.34    119.43    -23.72     17.34
   23.0240    119.87    118.33    -25.09     17.34
   23.0341    119.06    117.25    -24.83     17.34
   23.0443    118.62    116.17    -24.19     17.34
   23.0545    117.63    115.11    -24.11     17.34
   23.0646    116.88    114.06    -23.82     17.34
   23.0748    115.79    113.02    -23.86     17.34
   23.0849    117.12    112.00    -21.51     17.34
   23.0951    113.95    110.98    -23.66     17.34
   23.1053    112.30    109.97    -24.31     17.34
   23.1154    110.73    108.99    -24.89     17.33
   23.1256    111.71    108.00    -22.93     17.33
   23.1358    110.68    107.04    -22.99     17.33
   23.1459    110.24    106.09    -22.49     17.33
   23.1561    108.26    105.15    -23.53     17.33
   23.1663    107.87    104.23    -22.99     17.33
   23.1764    105.55    103.33    -24.41     17.33
   23.1866    106.71    102.43    -22.36     17.33
   23.1968    105.76    101.55    -22.42     17.33
   23.2069    105.37    100.69    -21.96     17.33
   23.2171    104.41     99.84    -22.06     17.33
   23.2272    105.12     99.01    -20.52     17.33
   23.2374    101.86     98.18    -22.96     17.32
   23.2476    103.79     97.38    -20.22     17.32
   23.2577    100.96     96.59    -22.27     17.32
   23.2679    101.22     95.81    -21.23     17.32
   23.2781     98.98     95.05    -22.71     17.32
   23.2882     98.71     94.31    -22.24     17.32
   23.2984     98.68     93.58    -21.53     17.32
   23.3086     97.63     92.86    -21.87     17.32
   23.3187     97.20     92.16    -21.60     17.32
   23.3289     95.64     91.47    -22.47     17.32
   23.3391     95.56     90.80    -21.88     17.32
   23.3492     93.85     90.15    -22.93     17.32
   23.3594     93.49     89.50    -22.65     17.31
   23.3695     93.98     88.88    -21.53     17.31
   23.3797     93.66     88.26    -21.23     17.31
   23.3899     92.79     87.65    -21.50     17.31
   23.4000     91.48     87.07    -22.23     17.31
   23.4102     90.52     86.49    -22.61     17.31
   23.4204     90.82     85.93    -21.75     17.31
   23.4305     91.38     85.38    -20.64     17.31
   23.4407     88.56     84.85    -22.92     17.31
   23.4509     89.26     84.32    -21.70     17.31
   23.4610     88.51     83.82    -21.94     17.31
   23.4712     86.33     83.32    -23.62     17.31
   23.4814     87.33     82.83    -22.13     17.30
   23.4915     86.02     82.36    -22.97     17.30
   23.5017     85.98     81.89    -22.55     17.30
   23.5119     85.75     81.44    -22.33     17.30
   23.5220     83.95     81.00    -23.69     17.30
   23.5322     83.88     80.57    -23.33     17.30
   23.5423     81.54     80.16    -25.25     17.30
   23.5525     83.86     79.75    -22.52     17.30
   23.5627     82.08     79.35    -23.90     17.30
   23.5728     82.60     78.96    -23.00     17.30
   23.5830     80.45     78.58    -24.77     17.30
   23.5932     81.02     78.21    -23.83     17.30
   23.6033     80.76     77.86    -23.73     17.29
   23.6135     80.90     77.51    -23.24     17.29
   23.6237     80.95     77.16    -22.85     17.29
   23.6338     78.80     76.83    -24.67     17.29
   23.6440     78.74     76.51    -24.40     17.29
   23.6542     79.07     76.19    -23.75     17.29
   23.6643     80.02     75.88    -22.50     17.29
   23.6745     79.37     75.58    -22.85     17.29
   23.6846     77.82     75.29    -24.10     17.29
   23.6948     78.40     75.00    -23.24     17.29
   23.7050     77.15     74.72    -24.21     17.29
   23.7151     77.37     74.45    -23.71     17.29
   23.7253     76.20     74.18    -24.62     17.28
   23.7355     76.11     73.92    -24.45     17.28
   23.7456     75.89     73.67    -24.41     17.28
   23.7558     74.93     73.42    -25.13     17.28
   23.7660     74.24     73.18    -25.57     17.28
   23.7761     73.78     72.94    -25.80     17.28
   23.7863     73.90     72.71    -25.45     17.28
   23.7965     74.84     72.48    -24.28     17.28
   23.8066     73.98     72.27    -24.92     17.28
   23.8168     72.86     72.05    -25.82     17.28
   23.8270     73.90     71.84    -24.57     17.28
   23.8371     71.52     71.63    -26.75     17.28
   23.8473     71.25     71.43    -26.81     17.27
   23.8574     72.88     71.23    -24.99     17.27
   23.8676     72.20     71.04    -25.47     17.27
   23.8778     70.40     70.85    -27.08     17.27
   23.8879     71.27     70.66    -26.03     17.27
   23.8981     71.18     70.48    -25.93     17.27
   23.9083     70.66     70.30    -26.28     17.27
   23.9184     69.57     70.12    -27.19     17.27
   23.9286     70.07     69.95    -26.52     17.27
   23.9388     70.79     69.78    -25.63     17.27
   23.9489     68.62     69.62    -27.63     17.27
   23.9591     70.06     69.45    -26.03     17.26
   23.9693     69.20     69.29    -26.73     17.26
   23.9794     68.30     69.13    -27.47     17.26
   23.9896     67.21     68.98    -28.40     17.26
   23.9997     68.02     68.83    -27.44     17.26
   24.0099     67.86     68.68    -27.45     17.26
   24.0201     68.06     68.53    -27.10     17.26
   24.0302     66.64     68.38    -28.38     17.26
   24.0404     67.25     68.24    -27.62     17.26
   24.0506     67.77     68.10    -26.96     17.26
   24.0607     67.15     67.96    -27.44     17.26
   24.0709     66.68     67.82    -27.77     17.26
   24.0811     66.09     67.68    -28.23     17.25
   24.0912     66.88     67.55    -27.30     17.25
   24.1014     65.94     67.41    -28.11     17.25
   24.1116     66.00     67.28    -27.92     17.25
   24.1217     66.64     67.15    -27.15     17.25
   24.1319     65.82     67.03    -27.84     17.25
   24.1421     64.23     66.90    -29.30     17.25
   24.1522     64.64     66.77    -28.77     17.25
   24.1624     64.57     66.65    -28.72     17.25
   24.1725     64.56     66.53    -28.60     17.25
   24.1827     64.85     66.41    -28.19     17.25
   24.1929     66.12     66.28    -26.80     17.25
   24.2030     64.29     66.17    -28.51     17.24
   24.2132     64.09     66.05    -28.59     17.24
   24.2234     64.09     65.93    -28.48     17.24
   24.2335     64.07     65.81    -28.38     17.24
   24.2437     63.46     65.70    -28.88     17.24
   24.2539     62.14     65.58    -30.08     17.24
   24.2640     63.00     65.47    -29.11     17.24
   24.2742     62.82     65.36    -29.18     17.24
   24.2844     61.27     65.25    -30.61     17.24
   24.2945     63.02     65.14    -28.75     17.24
   24.3047     61.44     65.03    -30.22     17.24
   24.3148     63.29     64.92    -28.26     17.24
   24.3250     62.57     64.81    -28.88     17.23
   24.3352     62.15     64.70    -29.19     17.23
   24.3453     61.58     64.60    -29.65     17.23
   24.3555     61.66     64.49    -29.47     17.23
   24.3657     61.65     64.38    -29.37     17.23
   24.3758     60.88     64.28    -30.03     17.23
   24.3860     61.39     64.17    -29.42     17.23
   24.3962     61.59     64.07    -29.12     17.23
   24.4063     60.83     63.97    -29.77     17.23
   24.4165     62.15     63.86    -28.35     17.23
   24.4267     60.75     63.76    -29.65     17.23
   24.4368     60.25     63.66    -30.05     17.23
   24.4470     60.59     63.56    -29.61     17.22
   24.4572     60.62     63.46    -29.47     17.22
   24.4673     60.85     63.36    -29.15     17.22
   24.4775     60.34     63.26    -29.56     17.22
   24.4876     61.59     63.16    -28.21     17.22
   24.4978     60.96     63.06    -28.74     17.22
   24.5080     59.48     62.96    -30.12     17.22
   24.5181     60.68     62.87    -28.82     17.22
   24.5283     59.57     62.77    -29.84     17.22
   24.5385     58.50     62.67    -30.81     17.22
   24.5486     58.92     62.58    -30.29     17.22
   24.5588     58.76     62.48    -30.36     17.22
   24.5690     59.47     62.38    -29.55     17.21
   24.5791     59.07     62.29    -29.85     17.21
   24.5893     59.05     62.19    -29.78     17.21
   24.5995     58.14     62.10    -30.59     17.21
   24.6096     58.59     62.01    -30.05     17.21
   24.6198     58.60     61.91    -29.95     17.21
   24.6299     58.62     61.82    -29.83     17.21
   24.6401     57.86     61.72    -30.50     17.21
   24.6503     58.85     61.63    -29.42     17.21
   24.6604     57.87     61.54    -30.31     17.21
   24.6706     58.15     61.45    -29.93     17.21
   24.6808     57.76     61.36    -30.23     17.21
   24.6909     57.91     61.26    -29.99     17.20
   24.7011     57.90     61.17    -29.91     17.20
   24.7113     58.44     61.08    -29.28     17.20
   24.7214     58.20     60.99    -29.43     17.20
   24.7316     57.65     60.90    -29.89     17.20
   24.7418     56.24     60.81    -31.21     17.20
   24.7519     58.35     60.72    -29.01     17.20
   24.7621     55.83     60.63    -31.44     17.20
   24.7723     56.54     60.54    -30.64     17.20
   24.7824     58.21     60.45    -28.88     17.20
   24.7926     57.48     60.37    -29.52     17.20
   24.8027     57.10     60.28    -29.81     17.20
   24.8129     57.27     60.19    -29.56     17.19
   24.8231     56.58     60.10    -30.16     17.19
   24.8332     56.46     60.01    -30.19     17.19
   24.8434     57.50     59.93    -29.06     17.19
   24.8536     56.63     59.84    -29.85     17.19
   24.8637     57.00     59.75    -29.39     17.19
   24.8739     56.66     59.67    -29.64     17.19
   24.8841     56.65     59.58    -29.57     17.19
   24.8942     55.48     59.49    -30.65     17.19
   24.9044     56.15     59.41    -29.89     17.19
   24.9146     56.60     59.32    -29.36     17.19
   24.9247     56.13     59.24    -29.74     17.19
   24.9349     54.78     59.15    -31.01     17.18
   24.9450     56.39     59.07    -29.31     17.18
   24.9552     56.85     58.98    -28.77     17.18
   24.9654     55.36     58.90    -30.17     17.18
   24.9755     55.88     58.82    -29.57     17.18
   24.9857     54.45     58.73    -30.92     17.18
   24.9959     55.81     58.65    -29.47     17.18
   25.0060     55.17     58.56    -30.03     17.18
   25.0162     54.63     58.48    -30.49     17.18
   25.0264     55.93     58.40    -29.10     17.18
   25.0365     55.25     58.32    -29.70     17.18
   25.0467     55.35     58.23    -29.52     17.18
   25.0569     55.39     58.15    -29.40     17.17
   25.0670     55.34     58.07    -29.36     17.17
   25.0772     55.66     57.99    -28.96     17.17
   25.0874     54.60     57.90    -29.94     17.17
   25.0975     54.45     57.82    -30.01     17.17
   25.1077     55.40     57.74    -28.98     17.17
   25.1178     56.05     57.66    -28.25     17.17
   25.1280     55.37     57.58    -28.85     17.17
   25.1382     54.29     57.50    -29.84     17.17
   25.1483     54.98     57.42    -29.07     17.17
   25.1585     54.45     57.34    -29.52     17.17
   25.1687     53.39     57.26    -30.50     17.16
   25.1788     53.87     57.18    -29.94     17.16
   25.1890     55.66     57.10    -28.07     17.16
   25.1992     53.77     57.02    -29.88     17.16
   25.2093     54.68     56.94    -28.89     17.16
   25.2195     54.74     56.86    -28.76     17.16
   25.2297     55.67     56.78    -27.75     17.16
   25.2398     54.46     56.70    -28.88     17.16
   25.2500     54.63     56.62    -28.63     17.16
   25.2601     53.98     56.54    -29.20     17.16
   25.2703     54.82     56.47    -28.28     17.16
   25.2805     54.34     56.39    -28.68     17.16
   25.2906     54.32     56.31    -28.63     17.15
   25.3008     54.31     56.23    -28.56     17.15
   25.3110     53.79     56.15    -29.00     17.15
   25.3211     54.02     56.08    -28.69     17.15
   25.3313     54.30     56.00    -28.34     17.15
   25.3415     54.65     55.92    -27.91     17.15
   25.3516     54.98     55.85    -27.50     17.15
   25.3618     53.94     55.77    -28.47     17.15
   25.3720     54.50     55.69    -27.83     17.15
   25.3821     54.00     55.62    -28.25     17.15
   25.3923     54.65     55.54    -27.53     17.15
   25.4024     53.59     55.47    -28.51     17.15
   25.4126     53.76     55.39    -28.27     17.14
   25.4228     53.37     55.31    -28.58     17.14
   25.4329     53.38     55.24    -28.50     17.14
   25.4431     54.23     55.16    -27.57     17.14
   25.4533     54.23     55.09    -27.49     17.14
   25.4634     53.10     55.01    -28.55     17.14
   25.4736     54.02     54.94    -27.56     17.14
   25.4838     53.62     54.86    -27.88     17.14
   25.4939     53.24     54.79    -28.19     17.14
   25.5041     53.09     54.72    -28.26     17.14
   25.5143     53.12     54.64    -28.16     17.14
   25.5244     54.14     54.57    -27.06     17.14
   25.5346     52.91     54.49    -28.22     17.13
   25.5448     52.88     54.42    -28.18     17.13
   25.5549     52.26     54.35    -28.72     17.13
   25.5651     53.34     54.27    -27.57     17.13
   25.5752     52.45     54.20    -28.39     17.13
   25.5854     53.09     54.13    -27.68     17.13
   25.5956     53.41     54.06    -27.28     17.13
   25.6057     53.52     53.98    -27.10     17.13
   25.6159     52.85     53.91    -27.70     17.13
   25.6261     51.91     53.84    -28.57     17.13
   25.6362     53.41     53.77    -26.99     17.13
   25.6464     52.43     53.70    -27.90     17.13
   25.6566     53.69     53.62    -26.57     17.12
   25.6667     54.19     53.55    -26.00     17.12
   25.6769     52.57     53.48    -27.55     17.12
   25.6871     52.46     53.41    -27.59     17.12
   25.6972     51.81     53.34    -28.17     17.12
   25.7074     51.33     53.27    -28.57     17.12
   25.7175     52.18     53.20    -27.65     17.12
   25.7277     52.63     53.13    -27.13     17.12
   25.7379     51.30     53.06    -28.39     17.12
   25.7480     52.65     52.99    -26.97     17.12
   25.7582     52.73     52.92    -26.82     17.12
   25.7684     51.60     52.85    -27.88     17.12
   25.7785     52.21     52.78    -27.20     17.11
   25.7887     52.60     52.71    -26.74     17.11
   25.7989     51.98     52.64    -27.30     17.11
   25.8090     53.07     52.57    -26.14     17.11
   25.8192     51.96     52.50    -27.18     17.11
   25.8294     52.16     52.43    -26.91     17.11
   25.8395     51.21     52.36    -27.79     17.11
   25.8497     51.89     52.30    -27.04     17.11
   25.8599     51.75     52.23    -27.11     17.11
   25.8700     53.09     52.16    -25.71     17.11
   25.8802     51.72     52.09    -27.01     17.11
   25.8903     51.37     52.02    -27.29     17.11
   25.9005     51.76     51.96    -26.83     17.10
   25.9107     51.54     51.89    -26.99     17.10
   25.9208     50.71     51.82    -27.75     17.10
   25.9310     50.04     51.76    -28.35     17.10
   25.9412     51.05     51.69    -27.27     17.10
   25.9513     50.87     51.62    -27.39     17.10
   25.9615     50.44     51.56    -27.75     17.10
   25.9717     50.88     51.49    -27.25     17.10
   25.9818     50.70     51.42    -27.36     17.10
   25.9920     50.56     51.36    -27.43     17.10
   26.0022     50.98     51.29    -26.95     17.10
   26.0123     50.16     51.23    -27.70     17.10
   26.0225     50.41     51.16    -27.39     17.09
   26.0326     50.52     51.10    -27.21     17.09
   26.0428     50.51     51.03    -27.16     17.09
   26.0530     50.74     50.97    -26.86     17.09
   26.0631     50.31     50.90    -27.23     17.09
   26.0733     51.19     50.84    -26.28     17.09
   26.0835     49.51     50.77    -27.90     17.09
   26.0936     49.95     50.71    -27.40     17.09
   26.1038     50.27     50.65    -27.01     17.09
   26.1140     49.05     50.58    -28.17     17.09
   26.1241     49.54     50.52    -27.61     17.09
   26.1343     49.92     50.46    -27.17     17.09
   26.1445     49.97     50.39    -27.06     17.08
   26.1546     49.85     50.33    -27.12     17.08
   26.1648     49.55     50.27    -27.35     17.08
   26.1750     49.40     50.20    -27.44     17.08
   26.1851     49.37     50.14    -27.41     17.08
   26.1953     49.60     50.08    -27.12     17.08
   26.2054     49.39     50.02    -27.26     17.08
   26.2156     49.29     49.96    -27.30     17.08
   26.2258     49.44     49.89    -27.09     17.08
   26.2359     49.21     49.83    -27.26     17.08
   26.2461     49.73     49.77    -26.68     17.08
   26.2563     49.52     49.71    -26.83     17.08
   26.2664     48.90     49.65    -27.39     17.07
   26.2766     49.10     49.59    -27.13     17.07
   26.2868     49.99     49.53    -26.18     17.07
   26.2969     48.42     49.47    -27.69     17.07
   26.3071     50.15     49.41    -25.90     17.07
   26.3173     49.13     49.35    -26.86     17.07
   26.3274     48.87     49.29    -27.06     17.07
   26.3376     48.41     49.23    -27.46     17.07
   26.3477     48.86     49.17    -26.95     17.07
   26.3579     49.16     49.12    -26.59     17.07
   26.3681     48.94     49.06    -26.75     17.07
   26.3782     48.42     49.00    -27.22     17.06
   26.3884     49.28     48.94    -26.30     17.06
   26.3986     48.34     48.88    -27.18     17.06
   26.4087     48.52     48.83    -26.94     17.06
   26.4189     49.19     48.77    -26.22     17.06
   26.4291     47.79     48.71    -27.56     17.06
   26.4392     47.70     48.66    -27.59     17.06
   26.4494     48.21     48.60    -27.03     17.06
   26.4596     48.58     48.54    -26.60     17.06
   26.4697     47.18     48.49    -27.94     17.06
   26.4799     48.55     48.43    -26.52     17.06
   26.4901     46.61     48.38    -28.40     17.06
   26.5002     47.91     48.32    -27.05     17.05
   26.5104     47.54     48.27    -27.36     17.05
   26.5205     48.27     48.21    -26.58     17.05
   26.5307     47.79     48.16    -27.00     17.05
   26.5409     47.24     48.10    -27.50     17.05
   26.5510     48.00     48.05    -26.69     17.05
   26.5612     48.02     48.00    -26.61     17.05
   26.5714     48.43     47.95    -26.15     17.05
   26.5815     47.97     47.89    -26.56     17.05
   26.5917     47.93     47.84    -26.55     17.05
   26.6019     47.32     47.79    -27.10     17.05
   26.6120     47.46     47.74    -26.91     17.05
   26.6222     48.24     47.69    -26.08     17.04
   26.6324     47.38     47.64    -26.89     17.04
   26.6425     47.92     47.59    -26.30     17.04
   26.6527     47.38     47.54    -26.79     17.04
   26.6628     47.96     47.49    -26.16     17.04
   26.6730     46.16     47.44    -27.91     17.04
   26.6832     45.36     47.39    -28.66     17.04
   26.6933     47.21     47.34    -26.77     17.04
   26.7035     46.52     47.29    -27.41     17.04
   26.7137     47.87     47.24    -26.01     17.04
   26.7238     47.71     47.20    -26.12     17.04
   26.7340     48.09     47.15    -25.70     17.04
   26.7442     47.01     47.10    -26.73     17.03
   26.7543     46.76     47.06    -26.93     17.03
   26.7645     46.82     47.01    -26.83     17.03
   26.7747     47.15     46.97    -26.45     17.03
   26.7848     46.90     46.93    -26.66     17.03
   26.7950     45.86     46.88    -27.66     17.03
   26.8052     47.26     46.84    -26.21     17.03
   26.8153     46.32     46.80    -27.11     17.03
   26.8255     47.57     46.75    -25.82     17.03
   26.8356     46.88     46.71    -26.47     17.03
   26.8458     46.97     46.67    -26.34     17.03
   26.8560     46.29     46.63    -26.98     17.03
   26.8661     46.65     46.60    -26.58     17.02
   26.8763     47.62     46.56    -25.57     17.02
   26.8865     46.38     46.52    -26.78     17.02
   26.8966     46.49     46.48    -26.63     17.02
   26.9068     46.05     46.45    -27.03     17.02
   26.9170     45.96     46.41    -27.09     17.02
   26.9271     45.71     46.38    -27.30     17.02
   26.9373     46.66     46.35    -26.32     17.02
   26.9475     46.60     46.31    -26.35     17.02
   26.9576     45.99     46.28    -26.93     17.02
   26.9678     46.70     46.25    -26.19     17.02
   26.9779     47.23     46.22    -25.63     17.02
   26.9881     45.93     46.19    -26.90     17.01
   26.9983     46.96     46.17    -25.84     17.01
   27.0084     46.05     46.14    -26.73     17.01
   27.0186     46.04     46.12    -26.71     17.01
   27.0288     46.53     46.09    -26.20     17.01
   27.0389     44.55     46.07    -28.16     17.01
   27.0491     47.37     46.05    -25.32     17.01
   27.0593     45.91     46.03    -26.76     17.01
   27.0694     45.36     46.01    -27.29     17.01
   27.0796     44.59     46.00    -28.04     17.01
   27.0898     45.41     45.98    -27.21     17.01
   27.0999     45.97     45.97    -26.63     17.01
   27.1101     45.46     45.96    -27.13     17.00
   27.1202     46.05     45.95    -26.53     17.00
   27.1304     46.50     45.94    -26.07     17.00
   27.1406     46.40     45.93    -26.17     17.00
   27.1507     46.89     45.93    -25.67     17.00
   27.1609     46.34     45.92    -26.22     17.00
   27.1711     46.55     45.92    -26.01     17.00
   27.1812     46.34     45.92    -26.22     17.00
   27.1914     46.46     45.93    -26.10     17.00
   27.2016     46.05     45.93    -26.52     17.00
   27.2117     46.91     45.94    -25.66     17.00
   27.2219     46.12     45.95    -26.47     17.00
   27.2321     46.82     45.96    -25.78     16.99
   27.2422     46.79     45.98    -25.82     16.99
   27.2524     46.47     45.99    -26.16     16.99
   27.2626     46.25     46.01    -26.40     16.99
   27.2727     46.55     46.04    -26.12     16.99
   27.2829     46.41     46.06    -26.29     16.99
   27.2930     46.71     46.09    -26.02     16.99
   27.3032     46.16     46.12    -26.60     16.99
   27.3134     46.22     46.16    -26.57     16.99
   27.3235     46.87     46.19    -25.96     16.99
   27.3337     46.44     46.24    -26.43     16.99
   27.3439     46.75     46.28    -26.17     16.99
   27.3540     46.75     46.33    -26.21     16.98
   27.3642     46.34     46.38    -26.67     16.98
   27.3744     46.77     46.43    -26.30     16.98
   27.3845     47.05     46.49    -26.08     16.98
   27.3947     46.51     46.55    -26.68     16.98
   27.4049     46.53     46.62    -26.72     16.98
   27.4150     46.07     46.69    -27.25     16.98
   27.4252     46.46     46.76    -26.94     16.98
   27.4353     47.51     46.84    -25.96     16.98
   27.4455     46.94     46.92    -26.62     16.98
   27.4557     46.60     47.01    -27.04     16.98
   27.4658     46.68     47.10    -27.05     16.98
   27.4760     46.18     47.19    -27.65     16.97
   27.4862     47.52     47.29    -26.41     16.97
   27.4963     46.89     47.39    -27.14     16.97
   27.5065     47.57     47.50    -26.57     16.97
   27.5167     47.17     47.62    -27.08     16.97
   27.5268     47.16     47.73    -27.21     16.97
   27.5370     47.97     47.86    -26.52     16.97
   27.5472     47.88     47.98    -26.74     16.97
   27.5573     46.63     48.12    -28.12     16.97
   27.5675     47.23     48.26    -27.66     16.97
   27.5777     47.64     48.40    -27.39     16.97
   27.5878     47.55     48.55    -27.63     16.96
   27.5980     47.76     48.70    -27.58     16.96
   27.6081     48.68     48.86    -26.81     16.96
   27.6183     48.29     49.02    -27.37     16.96
   27.6285     48.60     49.19    -27.23     16.96
   27.6386     48.13     49.37    -27.87     16.96
   27.6488     48.01     49.55    -28.18     16.96
   27.6590     49.01     49.74    -27.36     16.96
   27.6691     50.03     49.93    -26.53     16.96
   27.6793     48.90     50.13    -27.86     16.96
   27.6895     48.32     50.33    -28.65     16.96
   27.6996     48.63     50.54    -28.54     16.96
   27.7098     49.21     50.75    -28.18     16.95
   27.7200     49.93     50.98    -27.68     16.95
   27.7301     49.72     51.20    -28.12     16.95
   27.7403     49.53     51.43    -28.54     16.95
   27.7504     48.84     51.67    -29.46     16.95
   27.7606     50.95     51.91    -27.60     16.95
   27.7708     49.94     52.16    -28.86     16.95
   27.7809     50.22     52.42    -28.83     16.95
   27.7911     51.01     52.68    -28.30     16.95
   27.8013     51.18     52.94    -28.40     16.95
   27.8114     50.38     53.21    -29.47     16.95
   27.8216     51.28     53.49    -28.84     16.95
   27.8318     51.30     53.77    -29.11     16.94
   27.8419     52.73     54.06    -27.96     16.94
   27.8521     51.94     54.35    -29.05     16.94
   27.8623     50.69     54.65    -30.59     16.94
   27.8724     52.62     54.95    -28.96     16.94
   27.8826     51.91     55.26    -29.98     16.94
   27.8928     53.30     55.57    -28.90     16.94
   27.9029     53.93     55.88    -28.59     16.94
   27.9131     53.23     56.20    -29.61     16.94
   27.9232     53.03     56.53    -30.13     16.94
   27.9334     54.41     56.86    -29.08     16.94
   27.9436     53.94     57.19    -29.89     16.94
   27.9537     54.97     57.52    -29.19     16.93
   27.9639     53.80     57.87    -30.70     16.93
   27.9741     55.60     58.21    -29.25     16.93
   27.9842     55.63     58.55    -29.56     16.93
   27.9944     55.63     58.90    -29.91     16.93
   28.0046     55.83     59.26    -30.06     16.93
   28.0147     56.45     59.61    -29.80     16.93
   28.0249     56.34     59.97    -30.26     16.93
   28.0351     56.89     60.33    -30.07     16.93
   28.0452     56.77     60.69    -30.55     16.93
   28.0554     57.66     61.05    -30.02     16.93
   28.0655     58.21     61.41    -29.83     16.93
   28.0757     58.87     61.77    -29.54     16.92
   28.0859     59.34     62.14    -29.43     16.92
   28.0960     59.40     62.50    -29.73     16.92
   28.1062     59.29     62.86    -30.21     16.92
   28.1164     60.88     63.22    -28.98     16.92
   28.1265     60.32     63.58    -29.90     16.92
   28.1367     61.66     63.94    -28.92     16.92
   28.1469     61.43     64.30    -29.51     16.92
   28.1570     62.41     64.65    -28.88     16.92
   28.1672     61.37     65.00    -30.27     16.92
   28.1774     63.55     65.35    -28.44     16.92
   28.1875     64.15     65.70    -28.18     16.92
   28.1977     63.45     66.04    -29.22     16.91
   28.2079     65.10     66.37    -27.91     16.91
   28.2180     65.49     66.70    -27.85     16.91
   28.2282     65.08     67.03    -28.58     16.91
   28.2383     65.73     67.34    -28.25     16.91
   28.2485     65.18     67.65    -29.11     16.91
   28.2587     67.36     67.96    -27.23     16.91
   28.2688     65.99     68.25    -28.90     16.91
   28.2790     67.76     68.54    -27.41     16.91
   28.2892     68.07     68.82    -27.38     16.91
   28.2993     68.77     69.08    -26.95     16.91
   28.3095     67.94     69.34    -28.04     16.91
   28.3197     68.24     69.59    -27.99     16.90
   28.3298     69.43     69.83    -27.03     16.90
   28.3400     70.07     70.05    -26.62     16.90
   28.3502     69.79     70.26    -27.11     16.90
   28.3603     70.02     70.46    -27.08     16.90
   28.3705     70.55     70.65    -26.73     16.90
   28.3806     71.34     70.82    -26.12     16.90
   28.3908     72.05     70.98    -25.57     16.90
   28.4010     71.15     71.12    -26.61     16.90
   28.4111     70.50     71.25    -27.39     16.90
   28.4213     71.68     71.37    -26.32     16.90
   28.4315     71.13     71.47    -26.97     16.90
   28.4416     73.64     71.55    -24.55     16.89
   28.4518     71.08     71.62    -27.17     16.89
   28.4620     72.08     71.67    -26.22     16.89
   28.4721     71.90     71.70    -26.44     16.89
   28.4823     72.37     71.72    -25.99     16.89
   28.4925     72.14     71.72    -26.22     16.89
   28.5026     72.34     71.70    -26.00     16.89
   28.5128     71.66     71.67    -26.65     16.89
   28.5230     72.87     71.62    -25.39     16.89
   28.5331     73.18     71.56    -25.01     16.89
   28.5433     72.87     71.48    -25.24     16.89
   28.5534     72.36     71.38    -25.65     16.89
   28.5636     71.27     71.26    -26.63     16.88
   28.5738     73.24     71.13    -24.53     16.88
   28.5839     71.91     70.99    -25.71     16.88
   28.5941     72.11     70.83    -25.35     16.88
   28.6043     72.10     70.65    -25.19     16.88
   28.6144     71.40     70.46    -25.70     16.88
   28.6246     71.56     70.26    -25.33     16.88
   28.6348     71.91     70.04    -24.76     16.88
   28.6449     71.25     69.81    -25.20     16.88
   28.6551     71.09     69.56    -25.11     16.88
   28.6653     70.15     69.31    -25.79     16.88
   28.6754     70.17     69.04    -25.51     16.88
   28.6856     70.47     68.76    -24.93     16.87
   28.6957     70.45     68.47    -24.66     16.87
   28.7059     69.80     68.17    -25.01     16.87
   28.7161     69.57     67.86    -24.93     16.87
   28.7262     70.52     67.55    -23.66     16.87
   28.7364     68.65     67.22    -25.21     16.87
   28.7466     69.05     66.88    -24.47     16.87
   28.7567     67.93     66.54    -25.25     16.87
   28.7669     68.73     66.19    -24.10     16.87
   28.7771     67.14     65.84    -25.33     16.87
   28.7872     66.88     65.48    -25.23     16.87
   28.7974     67.16     65.11    -24.59     16.86
   28.8076     66.53     64.74    -24.84     16.86
   28.8177     65.22     64.36    -25.78     16.86
   28.8279     65.54     63.98    -25.08     16.86
   28.8381     66.28     63.60    -23.96     16.86
   28.8482     65.24     63.22    -24.61     16.86
   28.8584     64.18     62.83    -25.28     16.86
   28.8685     63.25     62.44    -25.83     16.86
   28.8787     63.26     62.05    -25.42     16.86
   28.8889     63.79     61.65    -24.50     16.86
   28.8990     63.29     61.26    -24.61     16.86
   28.9092     63.06     60.87    -24.44     16.86
   28.9194     61.65     60.47    -25.46     16.85
   28.9295     60.76     60.08    -25.96     16.85
   28.9397     61.74     59.69    -24.58     16.85
   28.9499     60.62     59.29    -25.31     16.85
   28.9600     61.27     58.91    -24.27     16.85
   28.9702     60.81     58.52    -24.34     16.85
   28.9804     59.77     58.13    -24.99     16.85
   28.9905     60.21     57.75    -24.17     16.85
   29.0007     59.31     57.36    -24.69     16.85
   29.0108     58.78     56.98    -24.84     16.85
   29.0210     58.32     56.61    -24.92     16.85
   29.0312     58.48     56.23    -24.39     16.85
   29.0413     57.91     55.86    -24.59     16.84
   29.0515     57.40     55.50    -24.73     16.84
   29.0617     56.75     55.13    -25.02     16.84
   29.0718     56.19     54.78    -25.22     16.84
   29.0820     55.65     54.42    -25.41     16.84
   29.0922     55.87     54.07    -24.84     16.84
   29.1023     56.34     53.73    -24.02     16.84
   29.1125     55.07     53.39    -24.95     16.84
   29.1227     56.51     53.05    -23.17     16.84
   29.1328     54.82     52.72    -24.53     16.84
   29.1430     54.31     52.39    -24.72     16.84
   29.1531     54.52     52.07    -24.19     16.84
   29.1633     52.96     51.76    -25.43     16.83
   29.1735     53.23     51.44    -24.85     16.83
   29.1836     54.20     51.14    -23.58     16.83
   29.1938     53.59     50.84    -23.89     16.83
   29.2040     51.92     50.54    -25.26     16.83
   29.2141     51.84     50.26    -25.05     16.83
   29.2243     51.39     49.97    -25.22     16.83
   29.2345     51.04     49.69    -25.29     16.83
   29.2446     50.91     49.42    -25.15     16.83
   29.2548     50.01     49.16    -25.78     16.83
   29.2650     51.18     48.89    -24.35     16.83
   29.2751     50.26     48.64    -25.02     16.83
   29.2853     50.70     48.39    -24.33     16.82
   29.2955     49.50     48.15    -25.28     16.82
   29.3056     49.15     47.91    -25.40     16.82
   29.3158     48.77     47.68    -25.54     16.82
   29.3259     48.46     47.45    -25.63     16.82
   29.3361     49.44     47.23    -24.43     16.82
   29.3463     48.74     47.01    -24.91     16.82
   29.3564     48.96     46.80    -24.48     16.82
   29.3666     48.27     46.60    -24.96     16.82
   29.3768     48.01     46.40    -25.02     16.82
   29.3869     48.04     46.21    -24.80     16.82
   29.3971     48.75     46.02    -23.90     16.82
   29.4073     47.46     45.83    -25.01     16.81
   29.4174     48.10     45.66    -24.19     16.81
   29.4276     47.76     45.48    -24.36     16.81
   29.4378     47.32     45.31    -24.63     16.81
   29.4479     47.23     45.15    -24.56     16.81
   29.4581     46.43     44.99    -25.20     16.81
   29.4682     45.96     44.84    -25.52     16.81
   29.4784     46.46     44.69    -24.87     16.81
   29.4886     46.07     44.54    -25.11     16.81
   29.4987     45.51     44.41    -25.53     16.81
   29.5089     45.28     44.27    -25.63     16.81
   29.5191     45.92     44.14    -24.85     16.81
   29.5292     45.34     44.01    -25.31     16.80
   29.5394     45.87     43.89    -24.65     16.80
   29.5496     45.52     43.77    -24.89     16.80
   29.5597     44.79     43.66    -25.50     16.80
   29.5699     45.29     43.54    -24.89     16.80
   29.5801     45.25     43.44    -24.82     16.80
   29.5902     44.66     43.33    -25.31     16.80
   29.6004     44.63     43.23    -25.24     16.80
   29.6106     45.02     43.13    -24.75     16.80
   29.6207     44.24     43.04    -25.44     16.80
   29.6309     44.11     42.95    -25.48     16.80
   29.6410     44.34     42.86    -25.16     16.80
   29.6512     44.12     42.78    -25.29     16.79
   29.6614     44.07     42.70    -25.26     16.79
   29.6715     44.34     42.62    -24.91     16.79
   29.6817     43.84     42.54    -25.34     16.79
   29.6919     43.80     42.47    -25.30     16.79
   29.7020     43.52     42.40    -25.51     16.79
   29.7122     43.08     42.33    -25.88     16.79
   29.7224     43.90     42.26    -25.00     16.79
   29.7325     42.82     42.20    -26.01     16.79
   29.7427     43.99     42.13    -24.78     16.79
   29.7529     43.08     42.07    -25.63     16.79
   29.7630     44.11     42.01    -24.54     16.79
   29.7732     42.83     41.96    -25.76     16.78
   29.7833     42.93     41.90    -25.61     16.78
   29.7935     44.02     41.85    -24.46     16.78
   29.8037     42.94     41.79    -25.49     16.78
   29.8138     41.56     41.74    -26.82     16.78
   29.8240     42.72     41.69    -25.61     16.78
   29.8342     42.62     41.64    -25.66     16.78
   29.8443     43.06     41.60    -25.17     16.78
   29.8545     41.82     41.55    -26.36     16.78
   29.8647     42.22     41.50    -25.92     16.78
   29.8748     42.88     41.46    -25.21     16.78
   29.8850     42.14     41.41    -25.91     16.78
   29.8952     42.77     41.37    -25.24     16.77
   29.9053     42.27     41.33    -25.69     16.77
   29.9155     44.13     41.29    -23.79     16.77
   29.9257     40.49     41.24    -27.39     16.77
   29.9358     41.05     41.20    -26.79     16.77
   29.9460     41.21     41.16    -26.59     16.77
   29.9561     41.63     41.12    -26.13     16.77
   29.9663     42.10     41.08    -25.62     16.77
   29.9765     41.52     41.04    -26.16     16.77
   29.9866     41.55     41.00    -26.09     16.77
   29.9968     42.20     40.96    -25.40     16.77
   30.0070     42.54     40.92    -25.02     16.76
   30.0171     41.82     40.88    -25.70     16.76
   30.0273     41.63     40.84    -25.85     16.76
   30.0375     41.92     40.80    -25.52     16.76
   30.0476     41.48     40.76    -25.92     16.76
   30.0578     41.28     40.72    -26.07     16.76
   30.0680     41.13     40.68    -26.18     16.76
   30.0781     41.05     40.64    -26.22     16.76
   30.0883     40.40     40.59    -26.83     16.76
   30.0984     41.91     40.55    -25.28     16.76
   30.1086     40.90     40.51    -26.25     16.76
   30.1188     40.63     40.47    -26.47     16.76
   30.1289     41.03     40.42    -26.03     16.75
   30.1391     40.13     40.38    -26.89     16.75
   30.1493     40.84     40.34    -26.13     16.75
   30.1594     40.48     40.29    -26.45     16.75
   30.1696     39.54     40.25    -27.34     16.75
   30.1798     39.68     40.20    -27.16     16.75
   30.1899     40.23     40.15    -26.56     16.75
   30.2001     40.45     40.11    -26.29     16.75
   30.2103     40.20     40.06    -26.49     16.75
   30.2204     40.32     40.01    -26.33     16.75
   30.2306     40.91     39.96    -25.69     16.75
   30.2408     40.16     39.91    -26.39     16.75
   30.2509     41.28     39.86    -25.22     16.74
   30.2611     39.28     39.81    -27.17     16.74
   30.2712     39.69     39.76    -26.71     16.74
   30.2814     39.69     39.71    -26.65     16.74
   30.2916     39.65     39.65    -26.64     16.74
   30.3017     39.27     39.60    -26.97     16.74
   30.3119     38.94     39.55    -27.24     16.74
   30.3221     39.07     39.49    -27.06     16.74
   30.3322     40.14     39.44    -25.93     16.74
   30.3424     38.85     39.38    -27.17     16.74
   30.3526     38.29     39.32    -27.67     16.74
   30.3627     39.29     39.27    -26.61     16.74
   30.3729     38.76     39.21    -27.09     16.73
   30.3831     37.95     39.15    -27.84     16.73
   30.3932     38.27     39.09    -27.46     16.73
   30.4034     38.87     39.03    -26.80     16.73
   30.4135     38.55     38.97    -27.06     16.73
   30.4237     37.83     38.91    -27.72     16.73
   30.4339     37.46     38.85    -28.03     16.73
   30.4440     37.01     38.79    -28.41     16.73
   30.4542     37.80     38.73    -27.56     16.73
   30.4644     36.76     38.66    -28.54     16.73
   30.4745     36.58     38.60    -28.66     16.73
   30.4847     36.52     38.54    -28.65     16.73
   30.4949     36.92     38.47    -28.19     16.72
   30.5050     37.10     38.41    -27.94     16.72
   30.5152     36.27     38.34    -28.71     16.72
   30.5254     37.84     38.28    -27.07     16.72
   30.5355     36.27     38.21    -28.58     16.72
   30.5457     36.88     38.14    -27.90     16.72
   30.5559     37.06     38.08    -27.65     16.72
   30.5660     36.47     38.01    -28.18     16.72
   30.5762     36.35     37.94    -28.23     16.72
   30.5863     36.82     37.88    -27.69     16.72
   30.5965     35.93     37.81    -28.51     16.72
   30.6067     36.40     37.74    -27.98     16.72
   30.6168     36.81     37.67    -27.50     16.71
   30.6270     36.01     37.60    -28.23     16.71
   30.6372     36.63     37.53    -27.54     16.71
   30.6473     36.23     37.47    -27.87     16.71
   30.6575     35.78     37.40    -28.25     16.71
   30.6677     35.32     37.33    -28.64     16.71
   30.6778     35.67     37.26    -28.22     16.71
   30.6880     36.07     37.19    -27.75     16.71
   30.6982     34.38     37.12    -29.38     16.71
   30.7083     35.31     37.05    -28.38     16.71
   30.7185     35.20     36.98    -28.42     16.71
   30.7286     35.19     36.91    -28.36     16.71
   30.7388     35.38     36.84    -28.10     16.70
   30.7490     35.24     36.77    -28.17     16.70
   30.7591     35.14     36.70    -28.20     16.70
   30.7693     34.66     36.63    -28.61     16.70
   30.7795     35.11     36.56    -28.09     16.70
   30.7896     34.93     36.50    -28.20     16.70
   30.7998     34.98     36.43    -28.08     16.70
   30.8100     34.11     36.36    -28.88     16.70
   30.8201     35.02     36.29    -27.90     16.70
   30.8303     35.15     36.22    -27.71     16.70
   30.8405     34.29     36.15    -28.50     16.70
   30.8506     34.21     36.08    -28.51     16.70
   30.8608     35.02     36.02    -27.63     16.69
   30.8710     35.30     35.95    -27.28     16.69
   30.8811     33.99     35.88    -28.53     16.69
   30.8913     34.76     35.81    -27.69     16.69
   30.9014     34.43     35.75    -27.95     16.69
   30.9116     33.88     35.68    -28.44     16.69
   30.9218     34.39     35.61    -27.86     16.69
   30.9319     33.57     35.55    -28.61     16.69
   30.9421     34.06     35.48    -28.06     16.69
   30.9523     34.84     35.41    -27.21     16.69
   30.9624     34.53     35.35    -27.46     16.69
   30.9726     33.57     35.29    -28.35     16.69
   30.9828     33.19     35.22    -28.67     16.68
   30.9929     33.38     35.16    -28.41     16.68
   31.0031     33.74     35.09    -27.99     16.68
   31.0133     33.34     35.03    -28.33     16.68
   31.0234     33.88     34.97    -27.72     16.68
   31.0336     33.69     34.90    -27.85     16.68
   31.0437     33.46     34.84    -28.02     16.68
   31.0539     33.57     34.78    -27.85     16.68
   31.0641     33.41     34.72    -27.95     16.68
   31.0742     34.55     34.66    -26.75     16.68
   31.0844     34.17     34.60    -27.07     16.68
   31.0946     32.40     34.54    -28.78     16.68
   31.1047     33.14     34.48    -27.98     16.67
   31.1149     33.28     34.42    -27.78     16.67
   31.1251     33.23     34.36    -27.77     16.67
   31.1352     34.09     34.31    -26.85     16.67
   31.1454     33.20     34.25    -27.68     16.67
   31.1556     32.83     34.19    -28.00     16.67
   31.1657     33.24     34.14    -27.53     16.67
   31.1759     32.38     34.08    -28.34     16.67
   31.1860     33.41     34.03    -27.25     16.67
   31.1962     32.80     33.97    -27.81     16.67
   31.2064     33.66     33.92    -26.89     16.67
   31.2165     33.01     33.86    -27.49     16.66
   31.2267     33.21     33.81    -27.24     16.66
   31.2369     32.04     33.76    -28.36     16.66
   31.2470     32.56     33.71    -27.78     16.66
   31.2572     33.68     33.66    -26.61     16.66
   31.2674     31.84     33.61    -28.40     16.66
   31.2775     32.97     33.56    -27.22     16.66
   31.2877     32.88     33.51    -27.26     16.66
   31.2979     32.44     33.46    -27.66     16.66
   31.3080     33.59     33.41    -26.46     16.66
   31.3182     32.34     33.36    -27.66     16.66
   31.3284     32.49     33.32    -27.46     16.66
   31.3385     31.86     33.27    -28.05     16.65
   31.3487     32.89     33.23    -26.97     16.65
   31.3588     32.04     33.18    -27.78     16.65
   31.3690     33.07     33.14    -26.70     16.65
   31.3792     31.91     33.09    -27.82     16.65
   31.3893     32.65     33.05    -27.04     16.65
   31.3995     32.37     33.01    -27.28     16.65
   31.4097     32.18     32.97    -27.42     16.65
   31.4198     32.55     32.93    -27.01     16.65
   31.4300     32.57     32.89    -26.95     16.65
   31.4402     32.62     32.85    -26.86     16.65
   31.4503     32.20     32.81    -27.24     16.65
   31.4605     32.23     32.77    -27.18     16.64
   31.4707     32.23     32.73    -27.14     16.64
   31.4808     32.38     32.70    -26.95     16.64
   31.4910     32.74     32.66    -26.56     16.64
   31.5011     32.85     32.62    -26.41     16.64
   31.5113     32.37     32.59    -26.85     16.64
   31.5215     32.76     32.55    -26.43     16.64
   31.5316     32.09     32.52    -27.07     16.64
   31.5418     31.88     32.49    -27.24     16.64
   31.5520     32.86     32.45    -26.23     16.64
   31.5621     32.34     32.42    -26.72     16.64
   31.5723     32.21     32.39    -26.82     16.64
   31.5825     31.96     32.36    -27.04     16.63
   31.5926     31.84     32.33    -27.13     16.63
   31.6028     31.67     32.30    -27.27     16.63
   31.6130     32.24     32.27    -26.67     16.63
   31.6231     32.84     32.25    -26.04     16.63
   31.6333     32.55     32.22    -26.30     16.63
   31.6435     32.63     32.19    -26.20     16.63
   31.6536     33.21     32.17    -25.59     16.63
   31.6638     31.88     32.14    -26.90     16.63
   31.6739     32.08     32.11    -26.67     16.63
   31.6841     32.45     32.09    -26.28     16.63
   31.6943     31.84     32.07    -26.86     16.63
   31.7044     32.35     32.04    -26.33     16.62
   31.7146     32.80     32.02    -25.86     16.62
   31.7248     31.58     32.00    -27.06     16.62
   31.7349     31.84     31.98    -26.77     16.62
   31.7451     32.15     31.96    -26.44     16.62
   31.7553     31.76     31.94    -26.81     16.62
   31.7654     31.66     31.92    -26.89     16.62
   31.7756     32.22     31.90    -26.32     16.62
   31.7858     31.94     31.88    -26.58     16.62
   31.7959     32.02     31.86    -26.48     16.62
   31.8061     31.62     31.85    -26.86     16.62
   31.8162     31.99     31.83    -26.48     16.62
   31.8264     31.56     31.81    -26.89     16.61
   31.8366     31.77     31.80    -26.66     16.61
   31.8467     32.50     31.78    -25.92     16.61
   31.8569     31.65     31.77    -26.75     16.61
   31.8671     32.19     31.76    -26.20     16.61
   31.8772     32.09     31.74    -26.29     16.61
   31.8874     31.70     31.73    -26.67     16.61
   31.8976     31.86     31.72    -26.49     16.61
   31.9077     32.15     31.71    -26.19     16.61
   31.9179     32.33     31.69    -26.00     16.61
   31.9281     31.71     31.68    -26.61     16.61
   31.9382     31.60     31.67    -26.71     16.61
   31.9484     31.75     31.66    -26.55     16.60
   31.9586     32.87     31.65    -25.42     16.60
   31.9687     32.40     31.65    -25.88     16.60
   31.9789     32.15     31.64    -26.12     16.60
   31.9890     32.87     31.63    -25.40     16.60
   31.9992     32.27     31.62    -25.99     16.60
   32.0094     32.74     31.61    -25.51     16.60
   32.0195     31.96     31.61    -26.28     16.60
   32.0297     32.39     31.60    -25.85     16.60
   32.0399     32.62     31.60    -25.61     16.60
   32.0500     31.92     31.59    -26.31     16.60
   32.0602     32.18     31.59    -26.04     16.60
   32.0704     32.21     31.58    -26.01     16.59
   32.0805     32.32     31.58    -25.89     16.59
   32.0907     31.41     31.57    -26.80     16.59
   32.1009     32.27     31.57    -25.94     16.59
   32.1110     31.45     31.57    -26.75     16.59
   32.1212     32.46     31.57    -25.74     16.59
   32.1313     31.73     31.56    -26.47     16.59
   32.1415     33.24     31.56    -24.96     16.59
   32.1517     31.31     31.56    -26.89     16.59
   32.1618     31.75     31.56    -26.45     16.59
   32.1720     31.84     31.56    -26.36     16.59
   32.1822     31.96     31.56    -26.23     16.59
   32.1923     32.60     31.56    -25.59     16.58
   32.2025     32.20     31.56    -25.99     16.58
   32.2127     32.35     31.56    -25.85     16.58
   32.2228     32.26     31.56    -25.94     16.58
   32.2330     31.87     31.56    -26.33     16.58
   32.2432     32.60     31.56    -25.60     16.58
   32.2533     31.72     31.56    -26.48     16.58
   32.2635     32.99     31.57    -25.21     16.58
   32.2737     32.12     31.57    -26.08     16.58
   32.2838     33.25     31.57    -24.96     16.58
   32.2940     32.66     31.57    -25.55     16.58
   32.3041     32.40     31.58    -25.81     16.58
   32.3143     32.06     31.58    -26.16     16.57
   32.3245     31.92     31.58    -26.30     16.57
   32.3346     32.18     31.59    -26.04     16.57
   32.3448     32.44     31.59    -25.79     16.57
   32.3550     31.95     31.59    -26.28     16.57
   32.3651     32.96     31.60    -25.27     16.57
   32.3753     32.00     31.60    -26.24     16.57
   32.3855     32.46     31.61    -25.78     16.57
   32.3956     32.53     31.61    -25.72     16.57
   32.4058     32.49     31.62    -25.76     16.57
   32.4160     32.85     31.62    -25.41     16.57
   32.4261     32.01     31.63    -26.25     16.56
   32.4363     32.27     31.63    -26.00     16.56
   32.4464     32.34     31.64    -25.93     16.56
   32.4566     32.79     31.64    -25.49     16.56
   32.4668     33.65     31.65    -24.63     16.56
   32.4769     32.68     31.65    -25.61     16.56
   32.4871     32.34     31.66    -25.95     16.56
   32.4973     32.11     31.66    -26.19     16.56
   32.5074     32.72     31.67    -25.58     16.56
   32.5176     33.02     31.67    -25.29     16.56
   32.5278     32.77     31.68    -25.54     16.56
   32.5379     33.07     31.68    -25.25     16.56
   32.5481     31.88     31.69    -26.45     16.55
   32.5583     33.02     31.70    -25.31     16.55
   32.5684     33.27     31.70    -25.07     16.55
   32.5786     32.87     31.71    -25.47     16.55
   32.5888     32.78     31.71    -25.57     16.55
   32.5989     32.36     31.72    -25.99     16.55
   32.6091     32.23     31.72    -26.13     16.55
   32.6192     33.04     31.73    -25.33     16.55
   32.6294     33.07     31.73    -25.30     16.55
   32.6396     32.71     31.74    -25.67     16.55
   32.6497     32.60     31.75    -25.78     16.55
   32.6599     32.16     31.75    -26.23     16.55
   32.6701     32.38     31.76    -26.01     16.54
   32.6802     31.93     31.76    -26.47     16.54
   32.6904     33.18     31.77    -25.22     16.54
   32.7006     32.38     31.77    -26.03     16.54
   32.7107     32.73     31.77    -25.68     16.54
   32.7209     32.10     31.78    -26.32     16.54
   32.7311     32.23     31.78    -26.19     16.54
   32.7412     32.61     31.79    -25.81     16.54
   32.7514     32.74     31.79    -25.69     16.54
   32.7615     31.97     31.80    -26.46     16.54
   32.7717     32.45     31.80    -25.99     16.54
   32.7819     32.13     31.80    -26.31     16.54
   32.7920     32.02     31.81    -26.42     16.53
   32.8022     32.40     31.81    -26.05     16.53
   32.8124     32.63     31.81    -25.82     16.53
   32.8225     32.13     31.81    -26.32     16.53
   32.8327     32.47     31.82    -25.98     16.53
   32.8429     32.01     31.82    -26.45     16.53
   32.8530     31.43     31.82    -27.03     16.53
   32.8632     32.95     31.82    -25.51     16.53
   32.8734     32.96     31.82    -25.50     16.53
   32.8835     32.65     31.83    -25.81     16.53
   32.8937     32.77     31.83    -25.69     16.53
   32.9039     32.46     31.83    -26.00     16.53
   32.9140     32.85     31.83    -25.61     16.52
   32.9242     32.91     31.83    -25.55     16.52
   32.9343     31.89     31.83    -26.57     16.52
   32.9445     32.16     31.83    -26.30     16.52
   32.9547     32.32     31.83    -26.14     16.52
   32.9648     32.71     31.82    -25.75     16.52
   32.9750     32.23     31.82    -26.23     16.52
   32.9852     32.33     31.82    -26.13     16.52
   32.9953     33.27     31.82    -25.18     16.52
   33.0055     31.34     31.82    -27.11     16.52
   33.0157     33.32     31.81    -25.13     16.52
   33.0258     32.46     31.81    -25.99     16.52
   33.0360     32.40     31.81    -26.04     16.51
   33.0462     32.07     31.80    -26.37     16.51
   33.0563     32.65     31.80    -25.78     16.51
   33.0665     32.38     31.79    -26.05     16.51
   33.0766     32.88     31.79    -25.54     16.51
   33.0868     31.45     31.78    -26.97     16.51
   33.0970     33.14     31.78    -25.27     16.51
   33.1071     32.75     31.77    -25.65     16.51
   33.1173     33.08     31.76    -25.32     16.51
   33.1275     32.41     31.75    -25.98     16.51
   33.1376     32.80     31.75    -25.58     16.51
   33.1478     32.08     31.74    -26.29     16.51
   33.1580     32.16     31.73    -26.21     16.50
   33.1681     31.94     31.72    -26.42     16.50
   33.1783     32.07     31.71    -26.28     16.50
   33.1885     32.81     31.70    -25.53     16.50
   33.1986     32.49     31.69    -25.84     16.50
   33.2088     32.77     31.68    -25.55     16.50
   33.2189     32.55     31.67    -25.75     16.50
   33.2291     32.79     31.66    -25.50     16.50
   33.2393     32.70     31.64    -25.58     16.50
   33.2494     32.89     31.63    -25.38     16.50
   33.2596     32.06     31.62    -26.19     16.50
   33.2698     32.76     31.60    -25.48     16.50
   33.2799     32.65     31.59    -25.58     16.49
   33.2901     32.77     31.58    -25.44     16.49
   33.3003     33.03     31.56    -25.17     16.49
   33.3104     33.02     31.55    -25.16     16.49
   33.3206     32.57     31.53    -25.60     16.49
   33.3308     32.70     31.51    -25.45     16.49
   33.3409     31.97     31.50    -26.16     16.49
   33.3511     33.20     31.48    -24.91     16.49
   33.3613     32.93     31.46    -25.17     16.49
   33.3714     33.24     31.44    -24.84     16.49
   33.3816     32.39     31.42    -25.67     16.49
   33.3917     33.02     31.40    -25.02     16.49
   33.4019     32.52     31.38    -25.50     16.48
   33.4121     32.01     31.36    -25.99     16.48
   33.4222     31.74     31.34    -26.24     16.48
   33.4324     32.88     31.32    -25.08     16.48
   33.4426     32.27     31.30    -25.67     16.48
   33.4527     32.17     31.28    -25.74     16.48
   33.4629     32.16     31.25    -25.73     16.48
   33.4731     31.76     31.23    -26.11     16.48
   33.4832     31.79     31.21    -26.05     16.48
   33.4934     31.76     31.18    -26.06     16.48
   33.5036     32.47     31.16    -25.33     16.48
   33.5137     33.04     31.13    -24.73     16.48
   33.5239     32.20     31.11    -25.54     16.47
   33.5340     31.87     31.08    -25.85     16.47
   33.5442     31.17     31.06    -26.52     16.47
   33.5544     31.41     31.03    -26.26     16.47
   33.5645     32.08     31.00    -25.56     16.47
   33.5747     31.67     30.97    -25.94     16.47
   33.5849     31.34     30.95    -26.24     16.47
   33.5950     31.05     30.92    -26.50     16.47
   33.6052     30.96     30.89    -26.56     16.47
   33.6154     31.05     30.86    -26.44     16.47
   33.6255     31.46     30.83    -26.00     16.47
   33.6357     31.25     30.80    -26.18     16.46
   33.6459     31.05     30.77    -26.35     16.46
   33.6560     31.41     30.74    -25.96     16.46
   33.6662     30.43     30.70    -26.91     16.46
   33.6764     30.54     30.67    -26.77     16.46
   33.6865     31.12     30.64    -26.16     16.46
   33.6967     30.65     30.61    -26.59     16.46
   33.7068     30.41     30.57    -26.80     16.46
   33.7170     30.16     30.54    -27.02     16.46
   33.7272     29.96     30.51    -27.18     16.46
   33.7373     30.41     30.47    -26.70     16.46
   33.7475     30.27     30.44    -26.80     16.46
   33.7577     30.10     30.40    -26.94     16.45
   33.7678     30.11     30.37    -26.89     16.45
   33.7780     29.54     30.33    -27.43     16.45
   33.7882     29.41     30.29    -27.52     16.45
   33.7983     30.09     30.26    -26.80     16.45
   33.8085     29.12     30.22    -27.74     16.45
   33.8187     29.84     30.18    -26.98     16.45
   33.8288     29.04     30.15    -27.74     16.45
   33.8390     29.59     30.11    -27.15     16.45
   33.8491     29.24     30.07    -27.47     16.45
   33.8593     28.41     30.03    -28.26     16.45
   33.8695     29.30     29.99    -27.33     16.45
   33.8796     28.49     29.95    -28.10     16.44
   33.8898     28.30     29.91    -28.25     16.44
   33.9000     29.76     29.87    -26.75     16.44
   33.9101     28.24     29.83    -28.23     16.44
   33.9203     28.30     29.79    -28.13     16.44
   33.9305     28.29     29.75    -28.10     16.44
   33.9406     27.39     29.71    -28.96     16.44
   33.9508     29.18     29.67    -27.13     16.44
   33.9610     28.07     29.63    -28.19     16.44
   33.9711     28.29     29.59    -27.93     16.44
   33.9813     29.29     29.55    -26.89     16.44
   33.9915     27.69     29.50    -28.45     16.44
   34.0016     28.13     29.46    -27.97     16.43
   34.0118     27.60     29.42    -28.45     16.43
   34.0219     27.44     29.38    -28.57     16.43
   34.0321     28.23     29.33    -27.74     16.43
   34.0423     27.18     29.29    -28.74     16.43
   34.0524     27.43     29.25    -28.45     16.43
   34.0626     27.79     29.20    -28.05     16.43
   34.0728     27.54     29.16    -28.25     16.43
   34.0829     27.13     29.11    -28.62     16.43
   34.0931     27.48     29.07    -28.23     16.43
   34.1033     28.18     29.03    -27.48     16.43
   34.1134     27.35     28.98    -28.27     16.43
   34.1236     27.75     28.94    -27.82     16.42
   34.1338     27.00     28.89    -28.53     16.42
   34.1439     26.98     28.85    -28.50     16.42
   34.1541     27.40     28.80    -28.04     16.42
   34.1642     27.54     28.76    -27.85     16.42
   34.1744     26.75     28.71    -28.60     16.42
   34.1846     26.87     28.66    -28.43     16.42
   34.1947     27.16     28.62    -28.10     16.42
   34.2049     26.25     28.57    -28.96     16.42
   34.2151     26.42     28.53    -28.74     16.42
   34.2252     27.17     28.48    -27.95     16.42
   34.2354     26.34     28.44    -28.73     16.42
   34.2456     26.49     28.39    -28.54     16.41
   34.2557     27.02     28.34    -27.96     16.41
   34.2659     25.77     28.30    -29.16     16.41
   34.2761     26.45     28.25    -28.44     16.41
   34.2862     26.17     28.20    -28.67     16.41
   34.2964     26.52     28.16    -28.27     16.41
   34.3066     26.07     28.11    -28.68     16.41
   34.3167     26.20     28.06    -28.50     16.41
   34.3269     26.46     28.02    -28.19     16.41
   34.3370     26.01     27.97    -28.60     16.41
   34.3472     26.55     27.92    -28.01     16.41
   34.3574     26.15     27.88    -28.36     16.41
   34.3675     26.90     27.83    -27.57     16.40
   34.3777     26.71     27.78    -27.71     16.40
   34.3879     25.76     27.74    -28.61     16.40
   34.3980     26.46     27.69    -27.86     16.40
   34.4082     26.16     27.64    -28.12     16.40
   34.4184     25.99     27.59    -28.24     16.40
   34.4285     26.24     27.55    -27.94     16.40
   34.4387     25.79     27.50    -28.35     16.40
   34.4489     25.79     27.45    -28.30     16.40
   34.4590     25.80     27.41    -28.24     16.40
   34.4692     26.16     27.36    -27.83     16.40
   34.4793     26.27     27.31    -27.68     16.40
   34.4895     25.85     27.26    -28.05     16.39
   34.4997     25.62     27.22    -28.23     16.39
   34.5098     25.68     27.17    -28.13     16.39
   34.5200     25.39     27.12    -28.37     16.39
   34.5302     26.56     27.08    -27.15     16.39
   34.5403     25.49     27.03    -28.18     16.39
   34.5505     25.10     26.98    -28.52     16.39
   34.5607     25.79     26.94    -27.78     16.39
   34.5708     25.40     26.89    -28.13     16.39
   34.5810     25.93     26.84    -27.55     16.39
   34.5912     25.77     26.80    -27.66     16.39
   34.6013     25.66     26.75    -27.73     16.39
   34.6115     25.40     26.70    -27.94     16.38
   34.6217     26.68     26.66    -26.61     16.38
   34.6318     26.07     26.61    -27.18     16.38
   34.6420     24.70     26.56    -28.50     16.38
   34.6521     24.98     26.52    -28.17     16.38
   34.6623     25.48     26.47    -27.63     16.38
   34.6725     25.63     26.43    -27.43     16.38
   34.6826     25.18     26.38    -27.84     16.38
   34.6928     25.42     26.33    -27.55     16.38
   34.7030     26.27     26.29    -26.65     16.38
   34.7131     25.51     26.24    -27.37     16.38
   34.7233     25.43     26.20    -27.40     16.38
   34.7335     25.19     26.15    -27.60     16.37
   34.7436     25.15     26.11    -27.59     16.37
   34.7538     24.90     26.06    -27.80     16.37
   34.7640     25.00     26.01    -27.65     16.37
   34.7741     25.73     25.97    -26.88     16.37
   34.7843     25.31     25.92    -27.25     16.37
   34.7944     25.43     25.88    -27.09     16.37
   34.8046     24.85     25.84    -27.62     16.37
   34.8148     24.07     25.79    -28.36     16.37
   34.8249     25.29     25.75    -27.09     16.37
   34.8351     24.66     25.70    -27.68     16.37
   34.8453     25.34     25.66    -26.95     16.36
   34.8554     24.65     25.61    -27.60     16.36
   34.8656     24.86     25.57    -27.35     16.36
   34.8758     24.70     25.53    -27.46     16.36
   34.8859     25.01     25.48    -27.11     16.36
   34.8961     24.95     25.44    -27.12     16.36
   34.9063     25.29     25.39    -26.74     16.36
   34.9164     24.20     25.35    -27.79     16.36
   34.9266     25.32     25.31    -26.62     16.36
   34.9367     24.32     25.27    -27.58     16.36
   34.9469     25.88     25.22    -25.98     16.36
   34.9571     24.44     25.18    -27.38     16.36
   34.9672     25.10     25.14    -26.67     16.35
   34.9774     24.93     25.09    -26.80     16.35
   34.9876     25.27     25.05    -26.42     16.35
   34.9977     25.05     25.01    -26.60     16.35
   35.0079     24.85     24.97    -26.75     16.35
   35.0181     24.54     24.93    -27.02     16.35
   35.0282     24.83     24.88    -26.69     16.35
   35.0384     24.91     24.84    -26.57     16.35
   35.0486     24.91     24.80    -26.53     16.35
   35.0587     24.92     24.76    -26.48     16.35
   35.0689     24.30     24.72    -27.06     16.35
   35.0791     25.35     24.68    -25.97     16.35
   35.0892     24.87     24.64    -26.40     16.34
   35.0994     24.70     24.60    -26.53     16.34
   35.1095     25.15     24.56    -26.04     16.34
   35.1197     24.31     24.52    -26.84     16.34
   35.1299     25.02     24.48    -26.09     16.34
   35.1400     24.54     24.44    -26.53     16.34
   35.1502     25.04     24.40    -25.99     16.34
   35.1604     24.90     24.36    -26.10     16.34
   35.1705     24.52     24.32    -26.44     16.34
   35.1807     24.42     24.28    -26.50     16.34
   35.1909     25.24     24.24    -25.64     16.34
   35.2010     24.82     24.20    -26.02     16.34
   35.2112     24.99     24.17    -25.81     16.33
   35.2214     24.88     24.13    -25.88     16.33
   35.2315     24.91     24.09    -25.82     16.33
   35.2417     25.09     24.05    -25.60     16.33
   35.2518     24.01     24.01    -26.64     16.33
   35.2620     24.80     23.98    -25.81     16.33
   35.2722     24.09     23.94    -26.48     16.33
   35.2823     24.82     23.90    -25.72     16.33
   35.2925     24.66     23.86    -25.84     16.33
   35.3027     24.50     23.83    -25.96     16.33
   35.3128     24.70     23.79    -25.73     16.33
   35.3230     23.68     23.75    -26.71     16.33
   35.3332     24.53     23.72    -25.82     16.32
   35.3433     24.66     23.68    -25.66     16.32
   35.3535     24.88     23.65    -25.40     16.32
   35.3637     24.18     23.61    -26.07     16.32
   35.3738     24.48     23.58    -25.73     16.32
   35.3840     24.49     23.54    -25.69     16.32
   35.3942     24.43     23.51    -25.71     16.32
   35.4043     24.65     23.47    -25.46     16.32
   35.4145     24.85     23.44    -25.22     16.32
   35.4246     23.90     23.40    -26.14     16.32
   35.4348     24.34     23.37    -25.66     16.32
   35.4450     24.49     23.33    -25.48     16.32
   35.4551     24.53     23.30    -25.41     16.31
   35.4653     24.39     23.27    -25.51     16.31
   35.4755     24.30     23.23    -25.57     16.31
   35.4856     23.75     23.20    -26.09     16.31
   35.4958     24.20     23.17    -25.60     16.31
   35.5060     24.72     23.13    -25.05     16.31
   35.5161     24.07     23.10    -25.67     16.31
   35.5263     23.68     23.07    -26.02     16.31
   35.5365     24.77     23.04    -24.90     16.31
   35.5466     23.95     23.00    -25.69     16.31
   35.5568     23.71     22.97    -25.90     16.31
   35.5669     24.29     22.94    -25.29     16.31
   35.5771     24.48     22.91    -25.07     16.30
   35.5873     24.23     22.88    -25.28     16.30
   35.5974     24.31     22.85    -25.17     16.30
   35.6076     24.16     22.82    -25.29     16.30
   35.6178     24.64     22.79    -24.78     16.30
   35.6279     24.55     22.76    -24.84     16.30
   35.6381     24.87     22.73    -24.49     16.30
   35.6483     24.14     22.70    -25.19     16.30
   35.6584     24.20     22.67    -25.10     16.30
   35.6686     24.30     22.64    -24.97     16.30
   35.6788     24.64     22.61    -24.60     16.30
   35.6889     23.54     22.58    -25.67     16.30
   35.6991     24.07     22.55    -25.11     16.29
   35.7093     24.61     22.52    -24.55     16.29
   35.7194     24.48     22.49    -24.65     16.29
   35.7296     23.78     22.46    -25.32     16.29
   35.7397     23.82     22.43    -25.25     16.29
   35.7499     24.52     22.41    -24.52     16.29
   35.7601     23.98     22.38    -25.03     16.29
   35.7702     24.31     22.35    -24.68     16.29
   35.7804     24.16     22.32    -24.80     16.29
   35.7906     24.04     22.30    -24.89     16.29
   35.8007     23.88     22.27    -25.02     16.29
   35.8109     24.04     22.24    -24.84     16.29
   35.8211     24.22     22.21    -24.63     16.28
   35.8312     24.09     22.19    -24.73     16.28
   35.8414     23.73     22.16    -25.07     16.28
   35.8516     23.71     22.13    -25.06     16.28
   35.8617     24.48     22.11    -24.27     16.28
   35.8719     24.21     22.08    -24.51     16.28
   35.8820     23.53     22.06    -25.16     16.28
   35.8922     23.94     22.03    -24.73     16.28
   35.9024     24.73     22.01    -23.91     16.28
   35.9125     23.91     21.98    -24.71     16.28
   35.9227     23.57     21.96    -25.02     16.28
   35.9329     23.68     21.93    -24.89     16.28
   35.9430     23.74     21.91    -24.80     16.27
   35.9532     23.71     21.88    -24.81     16.27
   35.9634     24.34     21.86    -24.15     16.27
   35.9735     23.98     21.83    -24.49     16.27
   35.9837     24.59     21.81    -23.86     16.27
   35.9939     24.20     21.79    -24.22     16.27
   36.0040     24.07     21.76    -24.33     16.27
   36.0142     23.73     21.74    -24.65     16.27
   36.0244     23.91     21.72    -24.44     16.27
   36.0345     23.74     21.69    -24.59     16.27
