 => TITLE: 
 => Data file name: C:\Users\stefano\Nextcloud2\notes\uni\thesis\XRD\data\G302\G302--5-40-0.01-1000ms.xy
 => Instrm        :    1
 => Lambda(1&2)   :   1.54060  1.54060
 => Numb.of.points:      2923
 => Numb.of.peaks :         8
    2Theta     Yobs     Ycalc  Yobs-Ycal    Backg    Bragg     Posr  Intensity   FWHM    Eta
    6.3135     22.30     24.34    -27.86     10.20   18.8388     -1.76     263.18  0.9586  1.0275
    6.3237     22.90     24.36    -27.28     10.20   20.6140     -1.76     111.45  1.5063  1.0275
    6.3338     22.96     24.37    -27.23     10.21   22.5721     -1.76     206.12  1.5422  1.0275
    6.3440     22.98     24.39    -27.23     10.21   28.7594     -1.76      52.10  1.2050  1.0275
    6.3542     22.47     24.41    -27.76     10.21   30.1692     -1.76      20.06  2.4018  1.0275
    6.3643     22.98     24.42    -27.26     10.21   33.3803     -1.76      21.77  2.4018  1.0275
    6.3745     23.49     24.44    -26.77     10.21   16.9852     -1.76      93.09  2.4018  1.0275
    6.3847     22.48     24.46    -27.80     10.21   20.1180     -1.76    1362.21 14.7004  1.0275
    6.3948     23.05     24.47    -27.24     10.21
    6.4050     23.04     24.49    -27.27     10.21
    6.4152     23.36     24.51    -26.97     10.21
    6.4253     22.90     24.52    -27.44     10.21
    6.4355     22.51     24.54    -27.85     10.21
    6.4457     23.39     24.56    -26.99     10.21
    6.4558     22.80     24.57    -27.59     10.21
    6.4660     22.88     24.59    -27.53     10.21
    6.4762     23.49     24.61    -26.94     10.21
    6.4863     23.51     24.62    -26.93     10.21
    6.4965     22.55     24.64    -27.91     10.21
    6.5066     23.13     24.66    -27.35     10.21
    6.5168     22.87     24.67    -27.62     10.21
    6.5270     23.77     24.69    -26.74     10.21
    6.5371     23.70     24.71    -26.83     10.21
    6.5473     23.57     24.73    -26.98     10.21
    6.5575     23.68     24.74    -26.88     10.21
    6.5676     23.16     24.76    -27.42     10.21
    6.5778     22.71     24.78    -27.89     10.21
    6.5880     24.29     24.79    -26.32     10.21
    6.5981     23.04     24.81    -27.59     10.21
    6.6083     23.35     24.83    -27.30     10.21
    6.6185     24.07     24.85    -26.60     10.21
    6.6286     23.62     24.86    -27.06     10.21
    6.6388     24.23     24.88    -26.47     10.21
    6.6489     23.67     24.90    -27.05     10.22
    6.6591     23.75     24.91    -26.98     10.22
    6.6693     23.15     24.93    -27.60     10.22
    6.6794     23.34     24.95    -27.43     10.22
    6.6896     23.30     24.97    -27.49     10.22
    6.6998     23.34     24.98    -27.46     10.22
    6.7099     23.66     25.00    -27.16     10.22
    6.7201     23.75     25.02    -27.09     10.22
    6.7303     23.73     25.04    -27.13     10.22
    6.7404     24.12     25.05    -26.75     10.22
    6.7506     23.84     25.07    -27.05     10.22
    6.7608     23.84     25.09    -27.07     10.22
    6.7709     23.76     25.11    -27.17     10.22
    6.7811     24.15     25.12    -26.79     10.22
    6.7913     23.82     25.14    -27.14     10.22
    6.8014     24.76     25.16    -26.22     10.22
    6.8116     24.29     25.18    -26.71     10.22
    6.8217     23.79     25.20    -27.23     10.22
    6.8319     23.65     25.21    -27.38     10.22
    6.8421     24.41     25.23    -26.64     10.22
    6.8522     25.16     25.25    -25.91     10.22
    6.8624     23.97     25.27    -27.12     10.22
    6.8726     23.59     25.28    -27.51     10.22
    6.8827     24.02     25.30    -27.10     10.22
    6.8929     24.29     25.32    -26.85     10.22
    6.9031     24.51     25.34    -26.65     10.22
    6.9132     24.98     25.36    -26.20     10.22
    6.9234     24.83     25.37    -26.36     10.22
    6.9336     24.60     25.39    -26.61     10.22
    6.9437     24.85     25.41    -26.38     10.22
    6.9539     24.39     25.43    -26.86     10.22
    6.9640     23.88     25.45    -27.39     10.23
    6.9742     24.49     25.47    -26.80     10.23
    6.9844     25.18     25.48    -26.12     10.23
    6.9945     24.48     25.50    -26.84     10.23
    7.0047     25.18     25.52    -26.16     10.23
    7.0149     24.22     25.54    -27.14     10.23
    7.0250     24.59     25.56    -26.79     10.23
    7.0352     25.42     25.57    -25.97     10.23
    7.0454     25.48     25.59    -25.93     10.23
    7.0555     24.27     25.61    -27.16     10.23
    7.0657     25.16     25.63    -26.29     10.23
    7.0759     24.56     25.65    -26.91     10.23
    7.0860     24.74     25.67    -26.75     10.23
    7.0962     24.52     25.69    -26.99     10.23
    7.1064     25.32     25.70    -26.20     10.23
    7.1165     25.13     25.72    -26.41     10.23
    7.1267     24.91     25.74    -26.65     10.23
    7.1368     25.29     25.76    -26.29     10.23
    7.1470     25.29     25.78    -26.31     10.23
    7.1572     25.75     25.80    -25.87     10.23
    7.1673     25.55     25.82    -26.09     10.23
    7.1775     25.38     25.84    -26.28     10.23
    7.1877     26.37     25.85    -25.30     10.23
    7.1978     25.45     25.87    -26.24     10.23
    7.2080     25.33     25.89    -26.38     10.23
    7.2182     25.78     25.91    -25.95     10.23
    7.2283     25.13     25.93    -26.62     10.23
    7.2385     25.74     25.95    -26.03     10.23
    7.2487     26.26     25.97    -25.53     10.23
    7.2588     26.50     25.99    -25.31     10.23
    7.2690     25.13     26.01    -26.70     10.23
    7.2791     26.19     26.02    -25.65     10.23
    7.2893     25.47     26.04    -26.39     10.24
    7.2995     26.55     26.06    -25.33     10.24
    7.3096     26.26     26.08    -25.64     10.24
    7.3198     26.24     26.10    -25.68     10.24
    7.3300     25.84     26.12    -26.10     10.24
    7.3401     25.95     26.14    -26.01     10.24
    7.3503     26.34     26.16    -25.64     10.24
    7.3605     25.79     26.18    -26.21     10.24
    7.3706     25.82     26.20    -26.20     10.24
    7.3808     26.34     26.22    -25.70     10.24
    7.3910     26.18     26.24    -25.88     10.24
    7.4011     26.37     26.26    -25.71     10.24
    7.4113     25.47     26.28    -26.63     10.24
    7.4215     25.85     26.30    -26.27     10.24
    7.4316     26.73     26.31    -25.40     10.24
    7.4418     26.33     26.33    -25.82     10.24
    7.4519     25.41     26.35    -26.76     10.24
    7.4621     25.96     26.37    -26.23     10.24
    7.4723     26.24     26.39    -25.97     10.24
    7.4824     26.92     26.41    -25.31     10.24
    7.4926     26.48     26.43    -25.77     10.24
    7.5028     25.96     26.45    -26.31     10.24
    7.5129     26.09     26.47    -26.20     10.24
    7.5231     25.96     26.49    -26.35     10.24
    7.5333     26.07     26.51    -26.26     10.24
    7.5434     25.91     26.53    -26.44     10.24
    7.5536     25.82     26.55    -26.55     10.24
    7.5638     25.70     26.57    -26.69     10.24
    7.5739     26.60     26.59    -25.81     10.24
    7.5841     26.37     26.61    -26.06     10.24
    7.5942     26.47     26.63    -25.98     10.24
    7.6044     25.98     26.65    -26.49     10.25
    7.6146     27.14     26.67    -25.35     10.25
    7.6247     26.51     26.69    -26.00     10.25
    7.6349     26.20     26.71    -26.33     10.25
    7.6451     27.02     26.73    -25.53     10.25
    7.6552     26.40     26.75    -26.17     10.25
    7.6654     27.17     26.77    -25.42     10.25
    7.6756     27.91     26.79    -24.70     10.25
    7.6857     27.36     26.81    -25.27     10.25
    7.6959     27.63     26.83    -25.02     10.25
    7.7061     27.17     26.85    -25.50     10.25
    7.7162     26.55     26.88    -26.15     10.25
    7.7264     26.98     26.90    -25.74     10.25
    7.7365     25.91     26.92    -26.83     10.25
    7.7467     26.50     26.94    -26.26     10.25
    7.7569     26.87     26.96    -25.91     10.25
    7.7670     27.30     26.98    -25.50     10.25
    7.7772     26.96     27.00    -25.86     10.25
    7.7874     27.61     27.02    -25.23     10.25
    7.7975     27.66     27.04    -25.20     10.25
    7.8077     26.91     27.06    -25.97     10.25
    7.8179     27.96     27.08    -24.94     10.25
    7.8280     26.82     27.10    -26.10     10.25
    7.8382     27.65     27.12    -25.29     10.25
    7.8484     26.63     27.14    -26.33     10.25
    7.8585     27.82     27.17    -25.17     10.25
    7.8687     27.33     27.19    -25.68     10.25
    7.8789     26.87     27.21    -26.16     10.25
    7.8890     27.51     27.23    -25.54     10.25
    7.8992     27.72     27.25    -25.35     10.25
    7.9093     26.87     27.27    -26.22     10.25
    7.9195     27.28     27.29    -25.83     10.26
    7.9297     28.19     27.31    -24.94     10.26
    7.9398     27.24     27.33    -25.91     10.26
    7.9500     27.92     27.36    -25.26     10.26
    7.9602     27.65     27.38    -25.55     10.26
    7.9703     28.19     27.40    -25.03     10.26
    7.9805     27.15     27.42    -26.09     10.26
    7.9907     28.32     27.44    -24.94     10.26
    8.0008     27.53     27.46    -25.75     10.26
    8.0110     28.05     27.48    -25.25     10.26
    8.0212     27.74     27.51    -25.59     10.26
    8.0313     27.46     27.53    -25.89     10.26
    8.0415     28.71     27.55    -24.66     10.26
    8.0516     27.37     27.57    -26.02     10.26
    8.0618     27.80     27.59    -25.61     10.26
    8.0720     27.97     27.61    -25.46     10.26
    8.0821     28.28     27.64    -25.18     10.26
    8.0923     28.41     27.66    -25.07     10.26
    8.1025     27.93     27.68    -25.57     10.26
    8.1126     28.49     27.70    -25.03     10.26
    8.1228     28.10     27.72    -25.44     10.26
    8.1330     28.63     27.75    -24.94     10.26
    8.1431     27.45     27.77    -26.14     10.26
    8.1533     27.60     27.79    -26.01     10.26
    8.1635     28.07     27.81    -25.56     10.26
    8.1736     29.21     27.83    -24.44     10.26
    8.1838     28.88     27.86    -24.80     10.26
    8.1940     28.73     27.88    -24.97     10.26
    8.2041     28.64     27.90    -25.08     10.26
    8.2143     28.01     27.92    -25.73     10.26
    8.2244     28.95     27.94    -24.81     10.26
    8.2346     28.80     27.97    -24.99     10.27
    8.2448     28.21     27.99    -25.60     10.27
    8.2549     28.90     28.01    -24.93     10.27
    8.2651     28.99     28.03    -24.86     10.27
    8.2753     28.97     28.06    -24.91     10.27
    8.2854     28.52     28.08    -25.38     10.27
    8.2956     28.13     28.10    -25.79     10.27
    8.3058     28.41     28.12    -25.53     10.27
    8.3159     29.34     28.15    -24.63     10.27
    8.3261     29.21     28.17    -24.78     10.27
    8.3363     29.16     28.19    -24.85     10.27
    8.3464     27.98     28.21    -26.05     10.27
    8.3566     29.16     28.24    -24.90     10.27
    8.3667     29.13     28.26    -24.95     10.27
    8.3769     28.64     28.28    -25.46     10.27
    8.3871     29.84     28.31    -24.29     10.27
    8.3972     28.73     28.33    -25.42     10.27
    8.4074     29.10     28.35    -25.07     10.27
    8.4176     29.40     28.37    -24.79     10.27
    8.4277     28.96     28.40    -25.26     10.27
    8.4379     29.07     28.42    -25.17     10.27
    8.4481     29.63     28.44    -24.63     10.27
    8.4582     28.38     28.47    -25.91     10.27
    8.4684     29.21     28.49    -25.10     10.27
    8.4786     29.99     28.51    -24.34     10.27
    8.4887     29.02     28.54    -25.34     10.27
    8.4989     29.26     28.56    -25.12     10.27
    8.5091     29.65     28.58    -24.75     10.27
    8.5192     29.74     28.61    -24.69     10.27
    8.5294     29.16     28.63    -25.29     10.27
    8.5395     29.32     28.65    -25.15     10.27
    8.5497     29.31     28.68    -25.19     10.27
    8.5599     29.62     28.70    -24.90     10.28
    8.5700     29.89     28.72    -24.65     10.28
    8.5802     30.41     28.75    -24.16     10.28
    8.5904     29.04     28.77    -25.55     10.28
    8.6005     29.74     28.80    -24.88     10.28
    8.6107     29.46     28.82    -25.18     10.28
    8.6209     29.56     28.84    -25.10     10.28
    8.6310     29.91     28.87    -24.78     10.28
    8.6412     29.35     28.89    -25.36     10.28
    8.6514     29.65     28.91    -25.08     10.28
    8.6615     30.30     28.94    -24.46     10.28
    8.6717     29.85     28.96    -24.93     10.28
    8.6818     29.79     28.99    -25.02     10.28
    8.6920     30.74     29.01    -24.09     10.28
    8.7022     29.70     29.04    -25.16     10.28
    8.7123     30.07     29.06    -24.81     10.28
    8.7225     29.10     29.08    -25.80     10.28
    8.7327     28.86     29.11    -26.07     10.28
    8.7428     30.23     29.13    -24.72     10.28
    8.7530     30.04     29.16    -24.94     10.28
    8.7632     29.54     29.18    -25.46     10.28
    8.7733     30.84     29.21    -24.19     10.28
    8.7835     30.46     29.23    -24.59     10.28
    8.7937     30.18     29.25    -24.89     10.28
    8.8038     30.51     29.28    -24.59     10.28
    8.8140     30.36     29.30    -24.76     10.28
    8.8242     30.01     29.33    -25.14     10.28
    8.8343     29.65     29.35    -25.52     10.28
    8.8445     30.49     29.38    -24.71     10.28
    8.8546     30.46     29.40    -24.76     10.28
    8.8648     30.08     29.43    -25.17     10.28
    8.8750     31.06     29.45    -24.21     10.29
    8.8851     30.39     29.48    -24.91     10.29
    8.8953     30.63     29.50    -24.69     10.29
    8.9055     29.84     29.53    -25.51     10.29
    8.9156     30.21     29.55    -25.16     10.29
    8.9258     30.51     29.58    -24.89     10.29
    8.9360     29.82     29.60    -25.60     10.29
    8.9461     30.36     29.63    -25.09     10.29
    8.9563     30.63     29.65    -24.84     10.29
    8.9665     31.11     29.68    -24.39     10.29
    8.9766     30.71     29.70    -24.81     10.29
    8.9868     31.18     29.73    -24.37     10.29
    8.9969     30.87     29.75    -24.70     10.29
    9.0071     30.83     29.78    -24.77     10.29
    9.0173     31.07     29.81    -24.56     10.29
    9.0274     30.37     29.83    -25.28     10.29
    9.0376     30.21     29.86    -25.47     10.29
    9.0478     30.94     29.88    -24.76     10.29
    9.0579     31.22     29.91    -24.51     10.29
    9.0681     30.82     29.93    -24.93     10.29
    9.0783     31.32     29.96    -24.46     10.29
    9.0884     30.59     29.99    -25.22     10.29
    9.0986     31.74     30.01    -24.09     10.29
    9.1088     32.55     30.04    -23.31     10.29
    9.1189     31.62     30.06    -24.26     10.29
    9.1291     31.30     30.09    -24.61     10.29
    9.1393     31.38     30.12    -24.56     10.29
    9.1494     31.66     30.14    -24.30     10.29
    9.1596     31.13     30.17    -24.86     10.29
    9.1697     30.68     30.19    -25.33     10.29
    9.1799     31.53     30.22    -24.51     10.29
    9.1901     30.44     30.25    -25.63     10.30
    9.2002     30.61     30.27    -25.48     10.30
    9.2104     31.57     30.30    -24.55     10.30
    9.2206     31.66     30.33    -24.49     10.30
    9.2307     31.57     30.35    -24.60     10.30
    9.2409     31.29     30.38    -24.91     10.30
    9.2511     30.70     30.41    -25.53     10.30
    9.2612     31.38     30.43    -24.87     10.30
    9.2714     32.03     30.46    -24.25     10.30
    9.2816     31.35     30.49    -24.96     10.30
    9.2917     31.37     30.51    -24.96     10.30
    9.3019     31.92     30.54    -24.44     10.30
    9.3120     31.49     30.57    -24.90     10.30
    9.3222     31.41     30.59    -25.00     10.30
    9.3324     32.26     30.62    -24.18     10.30
    9.3425     30.92     30.65    -25.55     10.30
    9.3527     31.80     30.67    -24.69     10.30
    9.3629     31.51     30.70    -25.01     10.30
    9.3730     31.26     30.73    -25.29     10.30
    9.3832     32.55     30.75    -24.02     10.30
    9.3934     32.20     30.78    -24.40     10.30
    9.4035     31.85     30.81    -24.78     10.30
    9.4137     31.48     30.84    -25.18     10.30
    9.4239     31.23     30.86    -25.45     10.30
    9.4340     31.69     30.89    -25.02     10.30
    9.4442     31.84     30.92    -24.90     10.30
    9.4544     31.70     30.95    -25.07     10.30
    9.4645     32.38     30.97    -24.41     10.30
    9.4747     32.37     31.00    -24.45     10.30
    9.4848     32.42     31.03    -24.43     10.30
    9.4950     32.28     31.06    -24.60     10.30
    9.5052     32.68     31.09    -24.23     10.31
    9.5153     32.09     31.11    -24.84     10.31
    9.5255     32.36     31.14    -24.60     10.31
    9.5357     32.55     31.17    -24.44     10.31
    9.5458     32.80     31.20    -24.22     10.31
    9.5560     32.85     31.23    -24.20     10.31
    9.5662     32.44     31.25    -24.63     10.31
    9.5763     32.59     31.28    -24.51     10.31
    9.5865     31.60     31.31    -25.53     10.31
    9.5967     31.74     31.34    -25.42     10.31
    9.6068     32.89     31.37    -24.30     10.31
    9.6170     32.34     31.39    -24.87     10.31
    9.6271     32.00     31.42    -25.24     10.31
    9.6373     32.92     31.45    -24.35     10.31
    9.6475     32.78     31.48    -24.52     10.31
    9.6576     32.41     31.51    -24.92     10.31
    9.6678     32.13     31.54    -25.23     10.31
    9.6780     32.50     31.57    -24.89     10.31
    9.6881     32.74     31.59    -24.67     10.31
    9.6983     32.56     31.62    -24.88     10.31
    9.7085     33.34     31.65    -24.13     10.31
    9.7186     33.48     31.68    -24.02     10.31
    9.7288     31.98     31.71    -25.55     10.31
    9.7390     32.43     31.74    -25.13     10.31
    9.7491     33.10     31.77    -24.49     10.31
    9.7593     32.98     31.80    -24.64     10.31
    9.7694     32.12     31.83    -25.53     10.31
    9.7796     33.10     31.86    -24.58     10.31
    9.7898     32.09     31.89    -25.62     10.31
    9.7999     32.35     31.91    -25.38     10.31
    9.8101     32.86     31.94    -24.90     10.31
    9.8203     33.16     31.97    -24.63     10.31
    9.8304     33.52     32.00    -24.30     10.32
    9.8406     33.34     32.03    -24.51     10.32
    9.8508     32.74     32.06    -25.14     10.32
    9.8609     33.45     32.09    -24.46     10.32
    9.8711     32.84     32.12    -25.10     10.32
    9.8813     33.23     32.15    -24.74     10.32
    9.8914     33.01     32.18    -24.99     10.32
    9.9016     33.07     32.21    -24.96     10.32
    9.9118     32.99     32.24    -25.07     10.32
    9.9219     32.65     32.27    -25.44     10.32
    9.9321     33.00     32.30    -25.12     10.32
    9.9422     32.74     32.33    -25.41     10.32
    9.9524     32.93     32.36    -25.25     10.32
    9.9626     33.30     32.39    -24.91     10.32
    9.9727     33.73     32.42    -24.51     10.32
    9.9829     32.09     32.45    -26.18     10.32
    9.9931     32.92     32.48    -25.38     10.32
   10.0032     32.76     32.51    -25.57     10.32
   10.0134     32.35     32.54    -26.01     10.32
   10.0236     32.20     32.57    -26.19     10.32
   10.0337     33.45     32.61    -24.98     10.32
   10.0439     32.96     32.64    -25.50     10.32
   10.0541     33.57     32.67    -24.92     10.32
   10.0642     33.30     32.70    -25.22     10.32
   10.0744     34.05     32.73    -24.50     10.32
   10.0845     33.95     32.76    -24.63     10.32
   10.0947     33.44     32.79    -25.17     10.32
   10.1049     34.73     32.82    -23.91     10.32
   10.1150     33.17     32.85    -25.50     10.32
   10.1252     34.08     32.88    -24.62     10.32
   10.1354     32.98     32.91    -25.75     10.32
   10.1455     33.46     32.95    -25.31     10.33
   10.1557     34.11     32.98    -24.69     10.33
   10.1659     32.98     33.01    -25.85     10.33
   10.1760     34.20     33.04    -24.66     10.33
   10.1862     34.45     33.07    -24.44     10.33
   10.1964     33.82     33.10    -25.10     10.33
   10.2065     33.64     33.13    -25.31     10.33
   10.2167     33.45     33.17    -25.54     10.33
   10.2269     34.13     33.20    -24.89     10.33
   10.2370     33.57     33.23    -25.48     10.33
   10.2472     34.06     33.26    -25.02     10.33
   10.2573     33.36     33.29    -25.75     10.33
   10.2675     33.63     33.33    -25.52     10.33
   10.2777     33.63     33.36    -25.55     10.33
   10.2878     33.80     33.39    -25.41     10.33
   10.2980     33.37     33.42    -25.87     10.33
   10.3082     34.37     33.45    -24.90     10.33
   10.3183     34.23     33.49    -25.08     10.33
   10.3285     34.44     33.52    -24.90     10.33
   10.3387     34.20     33.55    -25.17     10.33
   10.3488     34.26     33.58    -25.14     10.33
   10.3590     33.77     33.62    -25.67     10.33
   10.3692     33.77     33.65    -25.70     10.33
   10.3793     34.28     33.68    -25.22     10.33
   10.3895     34.12     33.72    -25.42     10.33
   10.3996     33.08     33.75    -26.49     10.33
   10.4098     33.19     33.78    -26.41     10.33
   10.4200     35.13     33.81    -24.50     10.33
   10.4301     34.01     33.85    -25.66     10.33
   10.4403     34.28     33.88    -25.42     10.33
   10.4505     34.66     33.91    -25.07     10.33
   10.4606     34.41     33.95    -25.36     10.34
   10.4708     34.14     33.98    -25.66     10.34
   10.4810     34.80     34.01    -25.03     10.34
   10.4911     34.66     34.05    -25.21     10.34
   10.5013     34.73     34.08    -25.17     10.34
   10.5115     34.08     34.11    -25.85     10.34
   10.5216     35.04     34.15    -24.93     10.34
   10.5318     34.70     34.18    -25.30     10.34
   10.5420     35.10     34.21    -24.93     10.34
   10.5521     35.17     34.25    -24.90     10.34
   10.5623     35.21     34.28    -24.89     10.34
   10.5724     33.70     34.32    -26.44     10.34
   10.5826     33.93     34.35    -26.24     10.34
   10.5928     34.49     34.38    -25.71     10.34
   10.6029     35.01     34.42    -25.23     10.34
   10.6131     33.96     34.45    -26.31     10.34
   10.6233     34.73     34.49    -25.58     10.34
   10.6334     34.75     34.52    -25.59     10.34
   10.6436     34.66     34.56    -25.72     10.34
   10.6538     34.65     34.59    -25.76     10.34
   10.6639     35.51     34.62    -24.93     10.34
   10.6741     35.30     34.66    -25.18     10.34
   10.6843     35.09     34.69    -25.42     10.34
   10.6944     36.05     34.73    -24.50     10.34
   10.7046     34.50     34.76    -26.08     10.34
   10.7147     35.46     34.80    -25.16     10.34
   10.7249     34.84     34.83    -25.81     10.34
   10.7351     34.67     34.87    -26.02     10.34
   10.7452     35.65     34.90    -25.07     10.34
   10.7554     34.34     34.94    -26.42     10.34
   10.7656     35.60     34.97    -25.19     10.34
   10.7757     34.99     35.01    -25.84     10.35
   10.7859     35.15     35.04    -25.71     10.35
   10.7961     35.34     35.08    -25.56     10.35
   10.8062     36.13     35.11    -24.80     10.35
   10.8164     35.52     35.15    -25.45     10.35
   10.8266     35.23     35.19    -25.78     10.35
   10.8367     35.91     35.22    -25.13     10.35
   10.8469     35.70     35.26    -25.38     10.35
   10.8571     35.75     35.29    -25.36     10.35
   10.8672     35.90     35.33    -25.25     10.35
   10.8774     35.67     35.37    -25.52     10.35
   10.8875     34.34     35.40    -26.88     10.35
   10.8977     35.94     35.44    -25.32     10.35
   10.9079     36.18     35.47    -25.11     10.35
   10.9180     35.52     35.51    -25.81     10.35
   10.9282     35.45     35.55    -25.92     10.35
   10.9384     36.11     35.58    -25.29     10.35
   10.9485     36.03     35.62    -25.41     10.35
   10.9587     36.02     35.66    -25.46     10.35
   10.9689     36.73     35.69    -24.78     10.35
   10.9790     35.43     35.73    -26.12     10.35
   10.9892     36.04     35.77    -25.55     10.35
   10.9994     35.94     35.80    -25.68     10.35
   11.0095     35.67     35.84    -25.99     10.35
   11.0197     35.88     35.88    -25.82     10.35
   11.0298     36.52     35.91    -25.21     10.35
   11.0400     35.59     35.95    -26.18     10.35
   11.0502     36.18     35.99    -25.63     10.35
   11.0603     35.85     36.03    -26.00     10.35
   11.0705     35.82     36.06    -26.06     10.35
   11.0807     36.19     36.10    -25.73     10.35
   11.0908     35.12     36.14    -26.84     10.35
   11.1010     35.86     36.18    -26.14     10.36
   11.1112     36.41     36.21    -25.62     10.36
   11.1213     36.52     36.25    -25.55     10.36
   11.1315     36.65     36.29    -25.46     10.36
   11.1417     35.49     36.33    -26.66     10.36
   11.1518     35.93     36.37    -26.26     10.36
   11.1620     36.29     36.40    -25.93     10.36
   11.1722     36.52     36.44    -25.74     10.36
   11.1823     36.20     36.48    -26.10     10.36
   11.1925     35.19     36.52    -27.15     10.36
   11.2026     35.87     36.56    -26.51     10.36
   11.2128     35.55     36.60    -26.87     10.36
   11.2230     36.71     36.63    -25.74     10.36
   11.2331     36.73     36.67    -25.76     10.36
   11.2433     36.51     36.71    -26.02     10.36
   11.2535     36.83     36.75    -25.74     10.36
   11.2636     36.63     36.79    -25.98     10.36
   11.2738     37.34     36.83    -25.31     10.36
   11.2840     37.45     36.87    -25.24     10.36
   11.2941     36.27     36.91    -26.46     10.36
   11.3043     37.30     36.95    -25.47     10.36
   11.3145     37.63     36.99    -25.18     10.36
   11.3246     36.76     37.02    -26.08     10.36
   11.3348     37.05     37.06    -25.83     10.36
   11.3449     37.62     37.10    -25.30     10.36
   11.3551     37.46     37.14    -25.50     10.36
   11.3653     36.47     37.18    -26.53     10.36
   11.3754     37.36     37.22    -25.68     10.36
   11.3856     38.01     37.26    -25.07     10.36
   11.3958     35.79     37.30    -27.33     10.36
   11.4059     36.96     37.34    -26.20     10.36
   11.4161     36.87     37.38    -26.33     10.37
   11.4263     36.82     37.42    -26.42     10.37
   11.4364     37.04     37.46    -26.24     10.37
   11.4466     36.09     37.50    -27.23     10.37
   11.4568     37.67     37.54    -25.69     10.37
   11.4669     37.79     37.58    -25.61     10.37
   11.4771     36.45     37.63    -27.00     10.37
   11.4873     37.47     37.67    -26.02     10.37
   11.4974     37.47     37.71    -26.06     10.37
   11.5076     38.01     37.75    -25.56     10.37
   11.5177     37.18     37.79    -26.43     10.37
   11.5279     36.99     37.83    -26.66     10.37
   11.5381     36.91     37.87    -26.78     10.37
   11.5482     37.60     37.91    -26.13     10.37
   11.5584     37.32     37.95    -26.45     10.37
   11.5686     37.18     38.00    -26.64     10.37
   11.5787     38.10     38.04    -25.76     10.37
   11.5889     38.13     38.08    -25.77     10.37
   11.5991     37.85     38.12    -26.09     10.37
   11.6092     37.65     38.16    -26.33     10.37
   11.6194     36.92     38.20    -27.10     10.37
   11.6296     38.68     38.25    -25.39     10.37
   11.6397     38.29     38.29    -25.82     10.37
   11.6499     37.15     38.33    -27.00     10.37
   11.6600     37.85     38.37    -26.34     10.37
   11.6702     38.29     38.41    -25.94     10.37
   11.6804     37.59     38.46    -26.69     10.37
   11.6905     37.37     38.50    -26.95     10.37
   11.7007     38.18     38.54    -26.18     10.37
   11.7109     38.14     38.58    -26.26     10.37
   11.7210     37.76     38.63    -26.69     10.37
   11.7312     37.38     38.67    -27.11     10.38
   11.7414     37.60     38.71    -26.93     10.38
   11.7515     39.03     38.76    -25.55     10.38
   11.7617     38.40     38.80    -26.22     10.38
   11.7719     38.75     38.84    -25.91     10.38
   11.7820     38.88     38.89    -25.83     10.38
   11.7922     38.95     38.93    -25.80     10.38
   11.8023     38.77     38.97    -26.02     10.38
   11.8125     37.91     39.02    -26.93     10.38
   11.8227     38.49     39.06    -26.39     10.38
   11.8328     37.97     39.10    -26.95     10.38
   11.8430     38.34     39.15    -26.63     10.38
   11.8532     38.67     39.19    -26.34     10.38
   11.8633     38.56     39.24    -26.50     10.38
   11.8735     38.46     39.28    -26.64     10.38
   11.8837     38.63     39.32    -26.51     10.38
   11.8938     37.96     39.37    -27.23     10.38
   11.9040     39.40     39.41    -25.83     10.38
   11.9142     38.81     39.46    -26.47     10.38
   11.9243     38.77     39.50    -26.55     10.38
   11.9345     38.99     39.55    -26.38     10.38
   11.9447     39.52     39.59    -25.89     10.38
   11.9548     38.02     39.64    -27.44     10.38
   11.9650     39.50     39.68    -26.00     10.38
   11.9751     38.34     39.73    -27.21     10.38
   11.9853     38.13     39.77    -27.46     10.38
   11.9955     39.04     39.82    -26.60     10.38
   12.0056     39.52     39.86    -26.16     10.38
   12.0158     38.82     39.91    -26.91     10.38
   12.0260     39.82     39.96    -25.96     10.38
   12.0361     39.95     40.00    -25.87     10.38
   12.0463     39.71     40.05    -26.16     10.39
   12.0565     38.60     40.09    -27.31     10.39
   12.0666     38.73     40.14    -27.23     10.39
   12.0768     39.21     40.19    -26.80     10.39
   12.0870     38.81     40.23    -27.24     10.39
   12.0971     38.91     40.28    -27.19     10.39
   12.1073     39.68     40.33    -26.47     10.39
   12.1174     38.93     40.37    -27.26     10.39
   12.1276     39.93     40.42    -26.31     10.39
   12.1378     39.14     40.47    -27.15     10.39
   12.1479     40.26     40.51    -26.07     10.39
   12.1581     38.90     40.56    -27.48     10.39
   12.1683     40.27     40.61    -26.16     10.39
   12.1784     40.01     40.65    -26.46     10.39
   12.1886     39.24     40.70    -27.28     10.39
   12.1988     39.48     40.75    -27.09     10.39
   12.2089     39.66     40.80    -26.96     10.39
   12.2191     39.86     40.84    -26.80     10.39
   12.2293     40.41     40.89    -26.30     10.39
   12.2394     39.23     40.94    -27.53     10.39
   12.2496     40.06     40.99    -26.75     10.39
   12.2598     40.78     41.04    -26.08     10.39
   12.2699     40.84     41.08    -26.06     10.39
   12.2801     40.29     41.13    -26.66     10.39
   12.2902     40.45     41.18    -26.55     10.39
   12.3004     40.63     41.23    -26.42     10.39
   12.3106     39.71     41.28    -27.39     10.39
   12.3207     40.22     41.33    -26.93     10.39
   12.3309     41.46     41.38    -25.74     10.39
   12.3411     40.65     41.43    -26.60     10.39
   12.3512     40.63     41.47    -26.66     10.39
   12.3614     40.70     41.52    -26.64     10.39
   12.3716     38.98     41.57    -28.41     10.40
   12.3817     40.28     41.62    -27.16     10.40
   12.3919     41.06     41.67    -26.43     10.40
   12.4021     40.49     41.72    -27.05     10.40
   12.4122     40.94     41.77    -26.65     10.40
   12.4224     41.40     41.82    -26.24     10.40
   12.4325     40.95     41.87    -26.74     10.40
   12.4427     41.07     41.92    -26.67     10.40
   12.4529     39.93     41.97    -27.86     10.40
   12.4630     41.27     42.02    -26.57     10.40
   12.4732     41.42     42.07    -26.47     10.40
   12.4834     41.60     42.13    -26.35     10.40
   12.4935     40.81     42.18    -27.19     10.40
   12.5037     41.05     42.23    -27.00     10.40
   12.5139     41.65     42.28    -26.45     10.40
   12.5240     42.28     42.33    -25.87     10.40
   12.5342     40.24     42.38    -27.96     10.40
   12.5444     41.48     42.43    -26.77     10.40
   12.5545     42.26     42.48    -26.04     10.40
   12.5647     42.10     42.54    -26.26     10.40
   12.5749     42.04     42.59    -26.37     10.40
   12.5850     41.41     42.64    -27.05     10.40
   12.5952     42.27     42.69    -26.24     10.40
   12.6053     41.10     42.74    -27.46     10.40
   12.6155     42.32     42.80    -26.30     10.40
   12.6257     41.41     42.85    -27.26     10.40
   12.6358     42.03     42.90    -26.69     10.40
   12.6460     41.79     42.95    -26.98     10.40
   12.6562     42.43     43.01    -26.40     10.40
   12.6663     41.84     43.06    -27.04     10.40
   12.6765     41.68     43.11    -27.25     10.40
   12.6867     41.85     43.17    -27.14     10.41
   12.6968     43.05     43.22    -25.99     10.41
   12.7070     42.12     43.27    -26.97     10.41
   12.7172     42.45     43.33    -26.70     10.41
   12.7273     42.53     43.38    -26.67     10.41
   12.7375     42.87     43.44    -26.39     10.41
   12.7476     42.30     43.49    -27.01     10.41
   12.7578     42.60     43.54    -26.76     10.41
   12.7680     43.90     43.60    -25.52     10.41
   12.7781     43.16     43.65    -26.31     10.41
   12.7883     42.05     43.71    -27.48     10.41
   12.7985     42.87     43.76    -26.71     10.41
   12.8086     42.37     43.82    -27.27     10.41
   12.8188     43.76     43.87    -25.93     10.41
   12.8290     43.48     43.93    -26.27     10.41
   12.8391     42.59     43.98    -27.21     10.41
   12.8493     42.85     44.04    -27.01     10.41
   12.8595     42.26     44.09    -27.65     10.41
   12.8696     43.16     44.15    -26.81     10.41
   12.8798     43.59     44.21    -26.44     10.41
   12.8900     42.76     44.26    -27.32     10.41
   12.9001     43.20     44.32    -26.94     10.41
   12.9103     43.52     44.37    -26.67     10.41
   12.9204     43.94     44.43    -26.31     10.41
   12.9306     44.19     44.49    -26.12     10.41
   12.9408     43.84     44.54    -26.52     10.41
   12.9509     44.13     44.60    -26.29     10.41
   12.9611     44.55     44.66    -25.93     10.41
   12.9713     43.29     44.72    -27.25     10.41
   12.9814     43.40     44.77    -27.19     10.41
   12.9916     43.44     44.83    -27.21     10.41
   13.0018     44.34     44.89    -26.37     10.42
   13.0119     45.90     44.95    -24.87     10.42
   13.0221     43.84     45.00    -26.98     10.42
   13.0323     44.10     45.06    -26.78     10.42
   13.0424     44.41     45.12    -26.53     10.42
   13.0526     42.81     45.18    -28.19     10.42
   13.0627     44.79     45.24    -26.27     10.42
   13.0729     44.15     45.30    -26.97     10.42
   13.0831     43.81     45.36    -27.37     10.42
   13.0932     44.62     45.41    -26.61     10.42
   13.1034     44.35     45.47    -26.94     10.42
   13.1136     44.85     45.53    -26.50     10.42
   13.1237     43.54     45.59    -27.87     10.42
   13.1339     45.40     45.65    -26.07     10.42
   13.1441     44.36     45.71    -27.17     10.42
   13.1542     44.54     45.77    -27.05     10.42
   13.1644     44.95     45.83    -26.70     10.42
   13.1746     44.95     45.89    -26.76     10.42
   13.1847     45.54     45.95    -26.23     10.42
   13.1949     45.91     46.02    -25.93     10.42
   13.2051     45.16     46.08    -26.74     10.42
   13.2152     44.79     46.14    -27.17     10.42
   13.2254     44.50     46.20    -27.52     10.42
   13.2355     45.16     46.26    -26.92     10.42
   13.2457     45.60     46.32    -26.54     10.42
   13.2559     44.70     46.38    -27.50     10.42
   13.2660     45.56     46.45    -26.71     10.42
   13.2762     45.41     46.51    -26.92     10.42
   13.2864     44.45     46.57    -27.94     10.42
   13.2965     45.73     46.63    -26.72     10.42
   13.3067     45.92     46.70    -26.60     10.42
   13.3169     44.97     46.76    -27.61     10.43
   13.3270     45.81     46.82    -26.83     10.43
   13.3372     45.95     46.88    -26.75     10.43
   13.3474     47.02     46.95    -25.75     10.43
   13.3575     46.34     47.01    -26.49     10.43
   13.3677     46.27     47.08    -26.63     10.43
   13.3778     46.66     47.14    -26.30     10.43
   13.3880     47.12     47.20    -25.90     10.43
   13.3982     48.17     47.27    -24.92     10.43
   13.4083     45.76     47.33    -27.39     10.43
   13.4185     46.73     47.40    -26.49     10.43
   13.4287     46.79     47.46    -26.49     10.43
   13.4388     46.80     47.53    -26.55     10.43
   13.4490     46.76     47.59    -26.65     10.43
   13.4592     47.05     47.66    -26.43     10.43
   13.4693     47.24     47.72    -26.30     10.43
   13.4795     47.52     47.79    -26.09     10.43
   13.4897     47.02     47.86    -26.66     10.43
   13.4998     47.46     47.92    -26.28     10.43
   13.5100     47.91     47.99    -25.90     10.43
   13.5201     48.96     48.05    -24.91     10.43
   13.5303     47.13     48.12    -26.81     10.43
   13.5405     48.60     48.19    -25.41     10.43
   13.5506     48.37     48.26    -25.71     10.43
   13.5608     47.57     48.32    -26.57     10.43
   13.5710     47.77     48.39    -26.44     10.43
   13.5811     48.46     48.46    -25.82     10.43
   13.5913     48.29     48.53    -26.06     10.43
   13.6015     48.52     48.60    -25.90     10.43
   13.6116     48.30     48.66    -26.18     10.43
   13.6218     47.08     48.73    -27.47     10.43
   13.6320     47.33     48.80    -27.29     10.43
   13.6421     48.30     48.87    -26.39     10.44
   13.6523     49.08     48.94    -25.68     10.44
   13.6625     47.93     49.01    -26.90     10.44
   13.6726     50.51     49.08    -24.39     10.44
   13.6828     48.41     49.15    -26.56     10.44
   13.6929     47.87     49.22    -27.17     10.44
   13.7031     50.19     49.29    -24.92     10.44
   13.7133     48.84     49.36    -26.34     10.44
   13.7234     47.89     49.43    -27.36     10.44
   13.7336     50.25     49.50    -25.07     10.44
   13.7438     49.01     49.58    -26.39     10.44
   13.7539     48.55     49.65    -26.92     10.44
   13.7641     50.54     49.72    -25.00     10.44
   13.7743     49.63     49.79    -25.98     10.44
   13.7844     49.80     49.86    -25.88     10.44
   13.7946     50.06     49.94    -25.70     10.44
   13.8048     49.79     50.01    -26.04     10.44
   13.8149     50.09     50.08    -25.81     10.44
   13.8251     49.06     50.16    -26.92     10.44
   13.8352     49.96     50.23    -26.09     10.44
   13.8454     50.02     50.30    -26.10     10.44
   13.8556     50.26     50.38    -25.94     10.44
   13.8657     50.58     50.45    -25.69     10.44
   13.8759     49.98     50.53    -26.37     10.44
   13.8861     51.24     50.60    -25.18     10.44
   13.8962     50.10     50.67    -26.39     10.44
   13.9064     50.35     50.75    -26.22     10.44
   13.9166     50.82     50.83    -25.83     10.44
   13.9267     50.24     50.90    -26.48     10.44
   13.9369     52.05     50.98    -24.75     10.44
   13.9471     50.82     51.05    -26.05     10.44
   13.9572     51.98     51.13    -24.97     10.45
   13.9674     50.41     51.21    -26.62     10.45
   13.9776     52.27     51.29    -24.84     10.45
   13.9877     51.45     51.36    -25.73     10.45
   13.9979     52.10     51.44    -25.16     10.45
   14.0080     51.20     51.52    -26.14     10.45
   14.0182     51.51     51.60    -25.91     10.45
   14.0284     52.63     51.67    -24.86     10.45
   14.0385     51.51     51.75    -26.06     10.45
   14.0487     52.72     51.83    -24.93     10.45
   14.0589     51.83     51.91    -25.90     10.45
   14.0690     53.16     51.99    -24.65     10.45
   14.0792     52.51     52.07    -25.38     10.45
   14.0894     52.48     52.15    -25.49     10.45
   14.0995     53.32     52.23    -24.73     10.45
   14.1097     51.94     52.31    -26.19     10.45
   14.1199     52.52     52.39    -25.69     10.45
   14.1300     53.46     52.48    -24.84     10.45
   14.1402     53.61     52.56    -24.77     10.45
   14.1503     53.63     52.64    -24.83     10.45
   14.1605     51.37     52.72    -27.17     10.45
   14.1707     53.78     52.80    -24.84     10.45
   14.1808     53.71     52.89    -25.00     10.45
   14.1910     53.46     52.97    -25.33     10.45
   14.2012     53.05     53.05    -25.82     10.45
   14.2113     53.78     53.14    -25.18     10.45
   14.2215     52.84     53.22    -26.20     10.45
   14.2317     53.20     53.31    -25.93     10.45
   14.2418     54.32     53.39    -24.89     10.45
   14.2520     53.53     53.48    -25.77     10.45
   14.2622     55.14     53.56    -24.24     10.45
   14.2723     52.46     53.65    -27.01     10.46
   14.2825     54.00     53.73    -25.55     10.46
   14.2927     53.09     53.82    -26.55     10.46
   14.3028     54.55     53.91    -25.18     10.46
   14.3130     55.21     53.99    -24.60     10.46
   14.3231     55.60     54.08    -24.30     10.46
   14.3333     55.19     54.17    -24.80     10.46
   14.3435     55.79     54.26    -24.29     10.46
   14.3536     55.26     54.35    -24.91     10.46
   14.3638     55.08     54.43    -25.17     10.46
   14.3740     55.45     54.52    -24.89     10.46
   14.3841     55.89     54.61    -24.54     10.46
   14.3943     55.00     54.70    -25.52     10.46
   14.4045     55.23     54.79    -25.38     10.46
   14.4146     55.62     54.88    -25.08     10.46
   14.4248     55.97     54.98    -24.83     10.46
   14.4350     57.16     55.07    -23.73     10.46
   14.4451     56.04     55.16    -24.94     10.46
   14.4553     55.28     55.25    -25.79     10.46
   14.4654     56.45     55.34    -24.71     10.46
   14.4756     56.38     55.44    -24.88     10.46
   14.4858     55.95     55.53    -25.40     10.46
   14.4959     57.16     55.62    -24.28     10.46
   14.5061     56.12     55.72    -25.42     10.46
   14.5163     56.98     55.81    -24.65     10.46
   14.5264     56.91     55.91    -24.82     10.46
   14.5366     56.34     56.00    -25.48     10.46
   14.5468     55.37     56.10    -26.55     10.46
   14.5569     56.45     56.19    -25.56     10.46
   14.5671     57.49     56.29    -24.62     10.46
   14.5773     57.18     56.39    -25.03     10.46
   14.5874     57.61     56.49    -24.70     10.47
   14.5976     58.94     56.58    -23.46     10.47
   14.6078     57.23     56.68    -25.27     10.47
   14.6179     58.00     56.78    -24.60     10.47
   14.6281     57.17     56.88    -25.53     10.47
   14.6382     58.27     56.98    -24.53     10.47
   14.6484     57.71     57.08    -25.19     10.47
   14.6586     56.66     57.18    -26.34     10.47
   14.6687     58.42     57.28    -24.68     10.47
   14.6789     59.18     57.38    -24.02     10.47
   14.6891     59.53     57.48    -23.77     10.47
   14.6992     58.01     57.59    -25.40     10.47
   14.7094     58.45     57.69    -25.06     10.47
   14.7196     58.80     57.79    -24.81     10.47
   14.7297     59.11     57.90    -24.61     10.47
   14.7399     59.39     58.00    -24.43     10.47
   14.7501     59.07     58.11    -24.86     10.47
   14.7602     59.74     58.21    -24.29     10.47
   14.7704     60.82     58.32    -23.32     10.47
   14.7805     60.30     58.42    -23.94     10.47
   14.7907     59.82     58.53    -24.53     10.47
   14.8009     61.10     58.64    -23.36     10.47
   14.8110     61.01     58.75    -23.56     10.47
   14.8212     60.47     58.85    -24.20     10.47
   14.8314     61.03     58.96    -23.75     10.47
   14.8415     61.63     59.07    -23.26     10.47
   14.8517     59.93     59.18    -25.07     10.47
   14.8619     60.80     59.29    -24.31     10.47
   14.8720     60.13     59.40    -25.09     10.47
   14.8822     61.77     59.52    -23.57     10.47
   14.8924     62.27     59.63    -23.18     10.47
   14.9025     61.13     59.74    -24.43     10.47
   14.9127     61.08     59.86    -24.60     10.48
   14.9229     62.62     59.97    -23.17     10.48
   14.9330     61.55     60.08    -24.35     10.48
   14.9432     62.41     60.20    -23.61     10.48
   14.9533     62.42     60.31    -23.71     10.48
   14.9635     62.13     60.43    -24.12     10.48
   14.9737     62.32     60.55    -24.05     10.48
   14.9838     63.92     60.67    -22.57     10.48
   14.9940     61.42     60.78    -25.18     10.48
   15.0042     63.57     60.90    -23.15     10.48
   15.0143     63.65     61.02    -23.19     10.48
   15.0245     63.19     61.14    -23.77     10.48
   15.0347     62.99     61.26    -24.09     10.48
   15.0448     62.75     61.38    -24.45     10.48
   15.0550     62.55     61.51    -24.78     10.48
   15.0652     63.84     61.63    -23.61     10.48
   15.0753     64.07     61.75    -23.50     10.48
   15.0855     64.62     61.88    -23.08     10.48
   15.0956     64.77     62.00    -23.05     10.48
   15.1058     65.27     62.13    -22.68     10.48
   15.1160     64.05     62.25    -24.02     10.48
   15.1261     64.77     62.38    -23.43     10.48
   15.1363     64.04     62.51    -24.29     10.48
   15.1465     65.07     62.64    -23.39     10.48
   15.1566     64.22     62.77    -24.37     10.48
   15.1668     64.86     62.90    -23.86     10.48
   15.1770     65.23     63.03    -23.62     10.48
   15.1871     64.74     63.16    -24.24     10.48
   15.1973     66.37     63.29    -22.74     10.48
   15.2075     64.13     63.42    -25.11     10.48
   15.2176     66.02     63.56    -23.36     10.48
   15.2278     66.91     63.69    -22.60     10.49
   15.2380     65.71     63.83    -23.94     10.49
   15.2481     66.21     63.96    -23.57     10.49
   15.2583     65.89     64.10    -24.03     10.49
   15.2684     66.15     64.24    -23.91     10.49
   15.2786     67.04     64.38    -23.15     10.49
   15.2888     67.90     64.51    -22.43     10.49
   15.2989     66.71     64.65    -23.76     10.49
   15.3091     68.56     64.80    -22.06     10.49
   15.3193     66.96     64.94    -23.80     10.49
   15.3294     67.12     65.08    -23.78     10.49
   15.3396     68.26     65.22    -22.78     10.49
   15.3498     66.96     65.37    -24.23     10.49
   15.3599     66.76     65.51    -24.57     10.49
   15.3701     67.77     65.66    -23.71     10.49
   15.3803     67.94     65.81    -23.69     10.49
   15.3904     68.40     65.95    -23.37     10.49
   15.4006     68.29     66.10    -23.63     10.49
   15.4107     69.51     66.25    -22.56     10.49
   15.4209     68.89     66.40    -23.33     10.49
   15.4311     68.53     66.56    -23.85     10.49
   15.4412     68.79     66.71    -23.74     10.49
   15.4514     68.97     66.86    -23.71     10.49
   15.4616     68.56     67.02    -24.28     10.49
   15.4717     70.13     67.17    -22.86     10.49
   15.4819     68.58     67.33    -24.57     10.49
   15.4921     68.44     67.49    -24.87     10.49
   15.5022     70.84     67.65    -22.63     10.49
   15.5124     70.02     67.81    -23.61     10.49
   15.5226     70.51     67.97    -23.28     10.49
   15.5327     70.38     68.13    -23.57     10.49
   15.5429     69.22     68.29    -24.89     10.50
   15.5530     71.23     68.45    -23.04     10.50
   15.5632     71.81     68.62    -22.63     10.50
   15.5734     71.55     68.79    -23.06     10.50
   15.5835     71.07     68.95    -23.70     10.50
   15.5937     71.19     69.12    -23.75     10.50
   15.6039     70.49     69.29    -24.62     10.50
   15.6140     71.26     69.46    -24.02     10.50
   15.6242     72.04     69.63    -23.41     10.50
   15.6344     71.90     69.80    -23.72     10.50
   15.6445     72.16     69.98    -23.64     10.50
   15.6547     72.05     70.15    -23.92     10.50
   15.6649     70.85     70.33    -25.30     10.50
   15.6750     72.78     70.50    -23.54     10.50
   15.6852     73.49     70.68    -23.01     10.50
   15.6954     72.07     70.86    -24.61     10.50
   15.7055     71.66     71.04    -25.20     10.50
   15.7157     74.04     71.22    -23.00     10.50
   15.7258     73.61     71.41    -23.62     10.50
   15.7360     73.46     71.59    -23.95     10.50
   15.7462     73.76     71.78    -23.84     10.50
   15.7563     74.41     71.96    -23.37     10.50
   15.7665     74.06     72.15    -23.91     10.50
   15.7767     74.33     72.34    -23.83     10.50
   15.7868     74.71     72.53    -23.64     10.50
   15.7970     75.16     72.72    -23.38     10.50
   15.8072     75.48     72.91    -23.25     10.50
   15.8173     74.00     73.11    -24.93     10.50
   15.8275     74.43     73.30    -24.69     10.50
   15.8377     76.37     73.50    -22.95     10.50
   15.8478     75.72     73.69    -23.79     10.50
   15.8580     75.56     73.89    -24.15     10.51
   15.8681     76.87     74.09    -23.04     10.51
   15.8783     76.13     74.29    -23.98     10.51
   15.8885     75.66     74.50    -24.66     10.51
   15.8986     77.40     74.70    -23.12     10.51
   15.9088     76.51     74.90    -24.21     10.51
   15.9190     76.26     75.11    -24.67     10.51
   15.9291     76.46     75.32    -24.68     10.51
   15.9393     78.12     75.52    -23.22     10.51
   15.9495     78.01     75.74    -23.55     10.51
   15.9596     78.77     75.94    -22.99     10.51
   15.9698     76.34     76.16    -25.64     10.51
   15.9800     77.74     76.37    -24.45     10.51
   15.9901     78.09     76.58    -24.31     10.51
   16.0003     76.81     76.80    -25.81     10.51
   16.0105     76.66     77.02    -26.18     10.51
   16.0206     78.59     77.24    -24.47     10.51
   16.0308     78.21     77.46    -25.07     10.51
   16.0409     78.24     77.67    -25.25     10.51
   16.0511     78.85     77.90    -24.87     10.51
   16.0613     77.66     78.12    -26.28     10.51
   16.0714     79.62     78.34    -24.54     10.51
   16.0816     79.46     78.57    -24.93     10.51
   16.0918     78.65     78.80    -25.97     10.51
   16.1019     80.43     79.02    -24.41     10.51
   16.1121     79.74     79.25    -25.33     10.51
   16.1223     79.15     79.48    -26.15     10.51
   16.1324     80.38     79.71    -25.15     10.51
   16.1426     79.05     79.94    -26.71     10.51
   16.1528     80.56     80.18    -25.44     10.51
   16.1629     80.52     80.41    -25.71     10.51
   16.1731     81.97     80.64    -24.49     10.51
   16.1832     81.03     80.88    -25.67     10.52
   16.1934     80.04     81.11    -26.89     10.52
   16.2036     83.30     81.35    -23.87     10.52
   16.2137     81.13     81.59    -26.28     10.52
   16.2239     82.24     81.83    -25.41     10.52
   16.2341     81.16     82.07    -26.73     10.52
   16.2442     81.09     82.31    -27.04     10.52
   16.2544     82.07     82.55    -26.30     10.52
   16.2646     83.77     82.80    -24.85     10.52
   16.2747     81.83     83.04    -27.03     10.52
   16.2849     84.84     83.28    -24.26     10.52
   16.2951     83.60     83.53    -25.75     10.52
   16.3052     83.38     83.77    -26.21     10.52
   16.3154     83.21     84.02    -26.63     10.52
   16.3256     84.29     84.26    -25.79     10.52
   16.3357     84.99     84.51    -25.34     10.52
   16.3459     84.37     84.76    -26.21     10.52
   16.3560     83.66     85.00    -27.16     10.52
   16.3662     84.49     85.25    -26.58     10.52
   16.3764     85.82     85.50    -25.50     10.52
   16.3865     86.67     85.75    -24.90     10.52
   16.3967     85.19     86.00    -26.63     10.52
   16.4069     86.09     86.25    -25.98     10.52
   16.4170     86.63     86.50    -25.69     10.52
   16.4272     84.68     86.75    -27.89     10.52
   16.4374     85.56     87.00    -27.26     10.52
   16.4475     85.90     87.24    -27.16     10.52
   16.4577     86.78     87.49    -26.53     10.52
   16.4679     85.91     87.74    -27.65     10.52
   16.4780     87.29     87.99    -26.52     10.52
   16.4882     87.02     88.24    -27.04     10.52
   16.4983     87.15     88.49    -27.16     10.53
   16.5085     88.37     88.74    -26.19     10.53
   16.5187     87.86     88.99    -26.95     10.53
   16.5288     86.73     89.23    -28.32     10.53
   16.5390     89.31     89.48    -25.99     10.53
   16.5492     89.04     89.73    -26.51     10.53
   16.5593     86.97     89.97    -28.82     10.53
   16.5695     88.20     90.22    -27.84     10.53
   16.5797     90.13     90.46    -26.15     10.53
   16.5898     89.48     90.71    -27.05     10.53
   16.6000     88.88     90.95    -27.89     10.53
   16.6102     88.41     91.19    -28.60     10.53
   16.6203     89.07     91.43    -28.18     10.53
   16.6305     91.41     91.67    -26.08     10.53
   16.6407     91.32     91.91    -26.41     10.53
   16.6508     89.02     92.15    -28.95     10.53
   16.6610     92.70     92.39    -25.51     10.53
   16.6711     90.39     92.62    -28.05     10.53
   16.6813     91.09     92.86    -27.59     10.53
   16.6915     91.54     93.09    -27.37     10.53
   16.7016     92.41     93.32    -26.73     10.53
   16.7118     92.47     93.55    -26.90     10.53
   16.7220     91.10     93.78    -28.50     10.53
   16.7321     92.48     94.01    -27.35     10.53
   16.7423     92.79     94.24    -27.27     10.53
   16.7525     93.22     94.46    -27.06     10.53
   16.7626     91.82     94.68    -28.68     10.53
   16.7728     93.78     94.91    -26.95     10.53
   16.7830     93.80     95.13    -27.15     10.53
   16.7931     92.68     95.34    -28.48     10.53
   16.8033     95.54     95.56    -25.84     10.53
   16.8134     94.96     95.77    -26.63     10.54
   16.8236     94.32     95.99    -27.49     10.54
   16.8338     94.73     96.20    -27.29     10.54
   16.8439     95.80     96.41    -26.43     10.54
   16.8541     94.70     96.61    -27.73     10.54
   16.8643     96.54     96.82    -26.10     10.54
   16.8744     95.11     97.02    -27.73     10.54
   16.8846     95.12     97.22    -27.92     10.54
   16.8948     96.07     97.42    -27.17     10.54
   16.9049     96.74     97.62    -26.70     10.54
   16.9151     96.62     97.82    -27.02     10.54
   16.9253     97.71     98.01    -26.12     10.54
   16.9354     97.07     98.20    -26.95     10.54
   16.9456     96.43     98.39    -27.78     10.54
   16.9558     98.51     98.58    -25.89     10.54
   16.9659     99.10     98.77    -25.49     10.54
   16.9761     97.96     98.95    -26.81     10.54
   16.9862     98.03     99.13    -26.92     10.54
   16.9964     99.52     99.32    -25.62     10.54
   17.0066     99.64     99.50    -25.68     10.54
   17.0167     97.95     99.67    -27.54     10.54
   17.0269     99.99     99.85    -25.68     10.54
   17.0371     98.01    100.02    -27.83     10.54
   17.0472     98.21    100.20    -27.81     10.54
   17.0574    102.35    100.37    -23.84     10.54
   17.0676     99.88    100.54    -26.48     10.54
   17.0777    100.76    100.71    -25.77     10.54
   17.0879    100.66    100.88    -26.04     10.54
   17.0981    100.76    101.04    -26.10     10.54
   17.1082    100.59    101.21    -26.44     10.54
   17.1184    100.93    101.37    -26.26     10.54
   17.1285    101.44    101.54    -25.92     10.55
   17.1387    100.90    101.70    -26.62     10.55
   17.1489    101.49    101.86    -26.19     10.55
   17.1590    100.68    102.02    -27.16     10.55
   17.1692    101.96    102.18    -26.04     10.55
   17.1794    103.32    102.34    -24.84     10.55
   17.1895    102.09    102.50    -26.23     10.55
   17.1997    103.79    102.66    -24.69     10.55
   17.2099    103.97    102.82    -24.67     10.55
   17.2200    101.47    102.98    -27.33     10.55
   17.2302    103.38    103.14    -25.58     10.55
   17.2404    104.60    103.30    -24.52     10.55
   17.2505    103.65    103.46    -25.63     10.55
   17.2607    104.45    103.62    -24.99     10.55
   17.2709    104.07    103.78    -25.53     10.55
   17.2810    104.24    103.94    -25.52     10.55
   17.2912    104.18    104.10    -25.74     10.55
   17.3013    104.42    104.27    -25.67     10.55
   17.3115    104.27    104.43    -25.98     10.55
   17.3217    104.73    104.60    -25.69     10.55
   17.3318    105.27    104.76    -25.31     10.55
   17.3420    104.86    104.93    -25.89     10.55
   17.3522    106.71    105.10    -24.21     10.55
   17.3623    105.97    105.28    -25.13     10.55
   17.3725    104.62    105.45    -26.65     10.55
   17.3827    106.01    105.63    -25.44     10.55
   17.3928    107.52    105.81    -24.11     10.55
   17.4030    106.39    105.99    -25.42     10.55
   17.4132    107.65    106.17    -24.34     10.55
   17.4233    106.80    106.36    -25.38     10.55
   17.4335    106.09    106.55    -26.28     10.55
   17.4436    106.31    106.74    -26.25     10.55
   17.4538    109.52    106.94    -23.24     10.56
   17.4640    106.57    107.14    -26.39     10.56
   17.4741    108.20    107.34    -24.96     10.56
   17.4843    108.88    107.55    -24.49     10.56
   17.4945    107.32    107.76    -26.26     10.56
   17.5046    106.96    107.97    -26.83     10.56
   17.5148    109.31    108.19    -24.70     10.56
   17.5250    110.80    108.42    -23.44     10.56
   17.5351    108.67    108.65    -25.80     10.56
   17.5453    110.26    108.88    -24.44     10.56
   17.5555    109.89    109.12    -25.05     10.56
   17.5656    111.32    109.36    -23.86     10.56
   17.5758    112.09    109.61    -23.34     10.56
   17.5859    111.45    109.87    -24.24     10.56
   17.5961    111.16    110.13    -24.79     10.56
   17.6063    111.98    110.40    -24.24     10.56
   17.6164    112.63    110.67    -23.86     10.56
   17.6266    112.73    110.95    -24.04     10.56
   17.6368    113.01    111.24    -24.05     10.56
   17.6469    112.34    111.53    -25.01     10.56
   17.6571    114.48    111.84    -23.18     10.56
   17.6673    113.61    112.15    -24.36     10.56
   17.6774    112.10    112.46    -26.18     10.56
   17.6876    115.26    112.79    -23.35     10.56
   17.6978    115.37    113.12    -23.57     10.56
   17.7079    114.96    113.46    -24.32     10.56
   17.7181    115.54    113.81    -24.09     10.56
   17.7283    115.13    114.17    -24.86     10.56
   17.7384    115.95    114.54    -24.41     10.56
   17.7486    116.82    114.91    -23.91     10.56
   17.7587    116.85    115.30    -24.27     10.56
   17.7689    117.11    115.70    -24.41     10.57
   17.7791    117.05    116.11    -24.88     10.57
   17.7892    116.70    116.52    -25.64     10.57
   17.7994    116.45    116.95    -26.32     10.57
   17.8096    119.12    117.39    -24.09     10.57
   17.8197    118.48    117.84    -25.18     10.57
   17.8299    119.24    118.30    -24.88     10.57
   17.8401    119.33    118.78    -25.27     10.57
   17.8502    121.40    119.26    -23.68     10.57
   17.8604    119.23    119.77    -26.36     10.57
   17.8706    119.88    120.28    -26.22     10.57
   17.8807    121.98    120.80    -24.64     10.57
   17.8909    120.29    121.35    -26.88     10.57
   17.9010    121.34    121.90    -26.38     10.57
   17.9112    123.16    122.47    -25.13     10.57
   17.9214    121.60    123.05    -27.27     10.57
   17.9315    123.18    123.65    -26.29     10.57
   17.9417    125.02    124.27    -25.07     10.57
   17.9519    123.93    124.90    -26.79     10.57
   17.9620    124.56    125.54    -26.80     10.57
   17.9722    123.76    126.21    -28.27     10.57
   17.9824    127.35    126.90    -25.37     10.57
   17.9925    126.21    127.59    -27.20     10.57
   18.0027    127.90    128.32    -26.24     10.57
   18.0129    127.60    129.06    -27.28     10.57
   18.0230    128.30    129.81    -27.33     10.57
   18.0332    128.56    130.59    -27.85     10.57
   18.0434    130.65    131.39    -26.56     10.57
   18.0535    128.70    132.21    -29.33     10.57
   18.0637    129.66    133.06    -29.22     10.57
   18.0738    129.80    133.92    -29.94     10.57
   18.0840    131.41    134.81    -29.22     10.58
   18.0942    133.32    135.73    -28.23     10.58
   18.1043    135.35    136.66    -27.13     10.58
   18.1145    132.87    137.62    -30.57     10.58
   18.1247    135.66    138.62    -28.78     10.58
   18.1348    132.57    139.62    -32.87     10.58
   18.1450    135.09    140.67    -31.40     10.58
   18.1552    136.83    141.74    -30.73     10.58
   18.1653    138.64    142.84    -30.02     10.58
   18.1755    138.91    143.97    -30.88     10.58
   18.1857    140.26    145.13    -30.69     10.58
   18.1958    140.50    146.31    -31.63     10.58
   18.2060    140.49    147.54    -32.87     10.58
   18.2161    143.38    148.79    -31.23     10.58
   18.2263    143.62    150.08    -32.28     10.58
   18.2365    141.32    151.40    -35.90     10.58
   18.2466    146.53    152.75    -32.04     10.58
   18.2568    145.34    154.14    -34.62     10.58
   18.2670    147.55    155.58    -33.85     10.58
   18.2771    149.01    157.03    -33.84     10.58
   18.2873    149.28    158.54    -35.08     10.58
   18.2975    149.35    160.08    -36.55     10.58
   18.3076    151.37    161.65    -36.10     10.58
   18.3178    153.99    163.27    -35.10     10.58
   18.3280    154.21    164.93    -36.54     10.58
   18.3381    155.27    166.62    -37.17     10.58
   18.3483    157.51    168.36    -36.67     10.58
   18.3585    157.94    170.14    -38.02     10.58
   18.3686    161.38    171.95    -36.39     10.58
   18.3788    164.73    173.81    -34.90     10.58
   18.3889    162.31    175.70    -39.21     10.58
   18.3991    167.67    177.65    -35.80     10.59
   18.4093    167.10    179.63    -38.35     10.59
   18.4194    169.04    181.64    -38.42     10.59
   18.4296    172.67    183.71    -36.86     10.59
   18.4398    174.16    185.81    -37.47     10.59
   18.4499    173.59    187.93    -40.16     10.59
   18.4601    176.07    190.11    -39.86     10.59
   18.4703    180.37    192.32    -37.77     10.59
   18.4804    178.40    194.55    -41.97     10.59
   18.4906    185.09    196.82    -37.55     10.59
   18.5008    185.72    199.13    -39.23     10.59
   18.5109    188.32    201.44    -38.94     10.59
   18.5211    191.23    203.79    -38.38     10.59
   18.5312    192.77    206.14    -39.19     10.59
   18.5414    192.77    208.53    -41.58     10.59
   18.5516    197.21    210.93    -39.54     10.59
   18.5617    200.79    213.32    -38.35     10.59
   18.5719    202.81    215.73    -38.74     10.59
   18.5821    206.87    218.14    -37.09     10.59
   18.5922    207.57    220.52    -38.77     10.59
   18.6024    208.25    222.92    -40.49     10.59
   18.6126    211.16    225.29    -39.95     10.59
   18.6227    216.12    227.61    -37.31     10.59
   18.6329    215.76    229.93    -39.99     10.59
   18.6431    221.67    232.20    -36.35     10.59
   18.6532    223.58    234.41    -36.65     10.59
   18.6634    221.95    236.58    -40.45     10.59
   18.6736    227.37    238.69    -37.14     10.59
   18.6837    229.87    240.71    -36.66     10.59
   18.6939    231.28    242.68    -37.22     10.59
   18.7040    236.27    244.54    -34.09     10.59
   18.7142    237.57    246.33    -34.58     10.60
   18.7244    240.75    248.01    -33.08     10.60
   18.7345    240.67    249.57    -34.72     10.60
   18.7447    246.46    251.03    -30.39     10.60
   18.7549    246.25    252.37    -31.94     10.60
   18.7650    248.59    253.57    -30.80     10.60
   18.7752    251.40    254.64    -29.06     10.60
   18.7854    252.73    255.57    -28.66     10.60
   18.7955    255.38    256.35    -26.79     10.60
   18.8057    257.24    257.00    -25.58     10.60
   18.8159    253.27    257.48    -30.03     10.60
   18.8260    258.27    257.82    -25.37     10.60
   18.8362    258.84    257.99    -24.97     10.60
   18.8463    259.90    258.02    -23.94     10.60
   18.8565    262.90    257.89    -20.81     10.60
   18.8667    262.20    257.60    -21.22     10.60
   18.8768    260.04    257.16    -22.94     10.60
   18.8870    260.12    256.57    -22.27     10.60
   18.8972    261.60    255.83    -20.05     10.60
   18.9073    254.94    254.96    -25.84     10.60
   18.9175    260.87    253.95    -18.90     10.60
   18.9277    261.81    252.80    -16.81     10.60
   18.9378    259.09    251.54    -18.27     10.60
   18.9480    260.16    250.14    -15.80     10.60
   18.9582    259.32    248.64    -15.14     10.60
   18.9683    257.26    247.04    -15.60     10.60
   18.9785    258.19    245.33    -12.96     10.60
   18.9887    256.29    243.54    -13.07     10.60
   18.9988    252.57    241.68    -14.93     10.60
   19.0090    252.12    239.73    -13.43     10.60
   19.0191    251.13    237.73    -12.42     10.60
   19.0293    246.59    235.65    -14.88     10.60
   19.0395    248.85    233.53    -10.50     10.61
   19.0496    245.21    231.38    -11.99     10.61
   19.0598    244.36    229.18    -10.64     10.61
   19.0700    241.75    226.95    -11.02     10.61
   19.0801    240.46    224.72    -10.08     10.61
   19.0903    236.41    222.45    -11.86     10.61
   19.1005    235.55    220.17    -10.44     10.61
   19.1106    232.98    217.91    -10.75     10.61
   19.1208    230.05    215.63    -11.40     10.61
   19.1310    225.35    213.35    -13.82     10.61
   19.1411    225.45    211.11    -11.48     10.61
   19.1513    221.99    208.86    -12.69     10.61
   19.1614    221.65    206.65    -10.82     10.61
   19.1716    218.68    204.44    -11.58     10.61
   19.1818    214.75    202.26    -13.33     10.61
   19.1919    214.96    200.12    -10.98     10.61
   19.2021    213.15    198.00    -10.67     10.61
   19.2123    207.67    195.91    -14.06     10.61
   19.2224    206.80    193.87    -12.89     10.61
   19.2326    206.30    191.85    -11.37     10.61
   19.2428    200.26    189.86    -15.42     10.61
   19.2529    199.37    187.94    -14.39     10.61
   19.2631    197.98    186.03    -13.87     10.61
   19.2733    195.70    184.17    -14.29     10.61
   19.2834    193.10    182.36    -15.08     10.61
   19.2936    191.12    180.58    -15.28     10.61
   19.3038    185.69    178.84    -18.97     10.61
   19.3139    187.93    177.16    -15.05     10.61
   19.3241    187.77    175.50    -13.55     10.61
   19.3342    183.23    173.90    -16.49     10.61
   19.3444    182.96    172.33    -15.19     10.61
   19.3546    182.27    170.80    -14.35     10.62
   19.3647    178.43    169.33    -16.72     10.62
   19.3749    176.49    167.88    -17.21     10.62
   19.3851    173.88    166.47    -18.41     10.62
   19.3952    174.95    165.11    -15.98     10.62
   19.4054    173.67    163.78    -15.93     10.62
   19.4156    171.64    162.49    -16.67     10.62
   19.4257    169.43    161.25    -17.64     10.62
   19.4359    168.26    160.04    -17.60     10.62
   19.4461    166.92    158.86    -17.76     10.62
   19.4562    163.80    157.73    -19.75     10.62
   19.4664    162.91    156.62    -19.53     10.62
   19.4765    164.38    155.56    -17.00     10.62
   19.4867    159.52    154.53    -20.83     10.62
   19.4969    162.21    153.52    -17.13     10.62
   19.5070    160.97    152.56    -17.41     10.62
   19.5172    159.83    151.62    -17.61     10.62
   19.5274    155.41    150.71    -21.12     10.62
   19.5375    155.85    149.84    -19.81     10.62
   19.5477    156.38    148.99    -18.43     10.62
   19.5579    155.27    148.17    -18.72     10.62
   19.5680    151.29    147.39    -21.92     10.62
   19.5782    152.58    146.63    -19.87     10.62
   19.5884    153.52    145.90    -18.20     10.62
   19.5985    151.74    145.19    -19.27     10.62
   19.6087    149.82    144.51    -20.51     10.62
   19.6188    148.70    143.86    -20.98     10.62
   19.6290    149.54    143.23    -19.51     10.62
   19.6392    148.76    142.62    -19.68     10.62
   19.6493    147.62    142.05    -20.25     10.62
   19.6595    146.41    141.49    -20.90     10.62
   19.6697    144.49    140.95    -22.28     10.63
   19.6798    147.13    140.44    -19.13     10.63
   19.6900    143.76    139.95    -22.01     10.63
   19.7002    143.49    139.48    -21.81     10.63
   19.7103    144.35    139.04    -20.51     10.63
   19.7205    143.43    138.61    -21.00     10.63
   19.7307    139.73    138.20    -24.29     10.63
   19.7408    140.88    137.82    -22.76     10.63
   19.7510    140.85    137.45    -22.42     10.63
   19.7612    139.52    137.10    -23.40     10.63
   19.7713    140.67    136.77    -21.92     10.63
   19.7815    141.10    136.46    -21.18     10.63
   19.7916    138.51    136.17    -23.48     10.63
   19.8018    139.40    135.89    -22.31     10.63
   19.8120    139.19    135.63    -22.26     10.63
   19.8221    139.05    135.39    -22.16     10.63
   19.8323    137.95    135.17    -23.04     10.63
   19.8425    136.16    134.96    -24.62     10.63
   19.8526    136.00    134.77    -24.59     10.63
   19.8628    136.40    134.60    -24.02     10.63
   19.8730    137.63    134.44    -22.63     10.63
   19.8831    134.98    134.29    -25.13     10.63
   19.8933    135.73    134.16    -24.25     10.63
   19.9035    134.46    134.05    -25.41     10.63
   19.9136    133.20    133.95    -26.57     10.63
   19.9238    135.09    133.86    -24.59     10.63
   19.9339    136.05    133.79    -23.56     10.63
   19.9441    134.89    133.73    -24.66     10.63
   19.9543    134.62    133.69    -24.89     10.63
   19.9644    133.54    133.66    -25.94     10.63
   19.9746    133.82    133.64    -25.64     10.63
   19.9848    134.71    133.64    -24.75     10.64
   19.9949    132.09    133.64    -27.37     10.64
   20.0051    131.87    133.66    -27.61     10.64
   20.0153    133.61    133.69    -25.90     10.64
   20.0254    132.79    133.74    -26.77     10.64
   20.0356    132.18    133.79    -27.43     10.64
   20.0458    133.65    133.86    -26.03     10.64
   20.0559    133.86    133.93    -25.89     10.64
   20.0661    130.84    134.02    -29.00     10.64
   20.0763    132.60    134.12    -27.34     10.64
   20.0864    133.60    134.22    -26.44     10.64
   20.0966    132.93    134.34    -27.23     10.64
   20.1067    133.20    134.46    -27.08     10.64
   20.1169    132.26    134.60    -28.16     10.64
   20.1271    130.39    134.74    -30.17     10.64
   20.1372    132.15    134.89    -28.56     10.64
   20.1474    132.05    135.05    -28.82     10.64
   20.1576    132.27    135.21    -28.76     10.64
   20.1677    130.95    135.38    -30.25     10.64
   20.1779    132.80    135.56    -28.58     10.64
   20.1881    132.11    135.75    -29.46     10.64
   20.1982    132.88    135.93    -28.87     10.64
   20.2084    132.66    136.13    -29.29     10.64
   20.2186    132.34    136.33    -29.81     10.64
   20.2287    132.47    136.53    -29.88     10.64
   20.2389    133.30    136.74    -29.26     10.64
   20.2490    132.12    136.95    -30.65     10.64
   20.2592    133.37    137.16    -29.61     10.64
   20.2694    134.52    137.38    -28.68     10.64
   20.2795    131.46    137.59    -31.95     10.64
   20.2897    132.99    137.81    -30.64     10.64
   20.2999    134.41    138.03    -29.44     10.64
   20.3100    131.05    138.24    -33.01     10.65
   20.3202    132.88    138.46    -31.40     10.65
   20.3304    133.71    138.67    -30.78     10.65
   20.3405    133.76    138.89    -30.95     10.65
   20.3507    132.93    139.10    -31.99     10.65
   20.3609    134.45    139.30    -30.67     10.65
   20.3710    132.74    139.50    -32.58     10.65
   20.3812    136.25    139.70    -29.27     10.65
   20.3914    134.68    139.90    -31.04     10.65
   20.4015    135.41    140.08    -30.49     10.65
   20.4117    136.23    140.26    -29.85     10.65
   20.4218    135.65    140.44    -30.61     10.65
   20.4320    136.24    140.61    -30.19     10.65
   20.4422    137.52    140.76    -29.06     10.65
   20.4523    136.37    140.91    -30.36     10.65
   20.4625    136.83    141.06    -30.05     10.65
   20.4727    137.04    141.19    -29.97     10.65
   20.4828    138.10    141.31    -29.03     10.65
   20.4930    137.39    141.42    -29.85     10.65
   20.5032    137.74    141.52    -29.60     10.65
   20.5133    137.16    141.61    -30.27     10.65
   20.5235    137.40    141.68    -30.10     10.65
   20.5337    137.52    141.75    -30.05     10.65
   20.5438    137.56    141.80    -30.06     10.65
   20.5540    138.24    141.84    -29.42     10.65
   20.5641    138.92    141.86    -28.76     10.65
   20.5743    140.07    141.87    -27.62     10.65
   20.5845    139.13    141.87    -28.56     10.65
   20.5946    141.28    141.86    -26.40     10.65
   20.6048    140.15    141.83    -27.50     10.65
   20.6150    138.87    141.78    -28.73     10.65
   20.6251    140.13    141.73    -27.42     10.66
   20.6353    140.33    141.65    -27.14     10.66
   20.6455    140.68    141.57    -26.71     10.66
   20.6556    141.24    141.47    -26.05     10.66
   20.6658    142.96    141.36    -24.22     10.66
   20.6760    140.27    141.23    -26.78     10.66
   20.6861    141.07    141.09    -25.84     10.66
   20.6963    141.09    140.94    -25.67     10.66
   20.7065    142.32    140.77    -24.27     10.66
   20.7166    141.52    140.59    -24.89     10.66
   20.7268    143.30    140.40    -22.92     10.66
   20.7369    144.01    140.20    -22.01     10.66
   20.7471    141.04    139.99    -24.77     10.66
   20.7573    142.79    139.76    -22.79     10.66
   20.7674    141.55    139.53    -23.80     10.66
   20.7776    142.32    139.28    -22.78     10.66
   20.7878    143.19    139.02    -21.65     10.66
   20.7979    142.35    138.76    -22.23     10.66
   20.8081    144.29    138.48    -20.01     10.66
   20.8183    142.60    138.20    -21.42     10.66
   20.8284    141.86    137.91    -21.87     10.66
   20.8386    143.21    137.61    -20.22     10.66
   20.8488    143.63    137.31    -19.50     10.66
   20.8589    142.26    137.00    -20.56     10.66
   20.8691    145.02    136.68    -17.48     10.66
   20.8792    141.68    136.37    -20.51     10.66
   20.8894    139.21    136.04    -22.65     10.66
   20.8996    140.96    135.71    -20.57     10.66
   20.9097    141.16    135.38    -20.04     10.66
   20.9199    139.91    135.04    -20.95     10.66
   20.9301    141.24    134.71    -19.29     10.66
   20.9402    140.79    134.37    -19.40     10.67
   20.9504    141.22    134.03    -18.63     10.67
   20.9606    140.13    133.69    -19.38     10.67
   20.9707    139.65    133.35    -19.52     10.67
   20.9809    137.73    133.01    -21.10     10.67
   20.9911    139.15    132.66    -19.33     10.67
   21.0012    140.09    132.33    -18.06     10.67
   21.0114    139.61    131.99    -18.20     10.67
   21.0216    138.60    131.65    -18.87     10.67
   21.0317    139.11    131.32    -18.03     10.67
   21.0419    136.57    130.99    -20.24     10.67
   21.0520    138.66    130.67    -17.83     10.67
   21.0622    136.09    130.34    -20.07     10.67
   21.0724    134.90    130.02    -20.94     10.67
   21.0825    135.89    129.71    -19.64     10.67
   21.0927    132.63    129.40    -22.59     10.67
   21.1029    133.43    129.09    -21.48     10.67
   21.1130    134.23    128.80    -20.39     10.67
   21.1232    134.66    128.50    -19.66     10.67
   21.1334    132.98    128.21    -21.05     10.67
   21.1435    132.08    127.93    -21.67     10.67
   21.1537    132.87    127.65    -20.60     10.67
   21.1639    132.94    127.38    -20.26     10.67
   21.1740    133.15    127.12    -19.79     10.67
   21.1842    130.81    126.86    -21.87     10.67
   21.1943    131.38    126.62    -21.06     10.67
   21.2045    129.27    126.37    -22.92     10.67
   21.2147    130.41    126.14    -21.55     10.67
   21.2248    127.52    125.91    -24.21     10.67
   21.2350    129.83    125.69    -21.68     10.67
   21.2452    126.70    125.48    -24.60     10.67
   21.2553    125.98    125.28    -25.12     10.68
   21.2655    128.14    125.08    -22.76     10.68
   21.2757    128.11    124.90    -22.61     10.68
   21.2858    124.90    124.72    -25.64     10.68
   21.2960    125.37    124.55    -25.00     10.68
   21.3062    124.60    124.39    -25.61     10.68
   21.3163    124.12    124.23    -25.93     10.68
   21.3265    124.24    124.09    -25.67     10.68
   21.3366    125.45    123.96    -24.33     10.68
   21.3468    122.58    123.83    -27.07     10.68
   21.3570    123.42    123.71    -26.11     10.68
   21.3671    124.45    123.60    -24.97     10.68
   21.3773    121.41    123.50    -27.91     10.68
   21.3875    121.36    123.41    -27.87     10.68
   21.3976    122.68    123.33    -26.47     10.68
   21.4078    121.57    123.26    -27.51     10.68
   21.4180    122.35    123.20    -26.67     10.68
   21.4281    122.82    123.15    -26.15     10.68
   21.4383    120.21    123.10    -28.71     10.68
   21.4485    120.41    123.07    -28.48     10.68
   21.4586    120.53    123.04    -28.33     10.68
   21.4688    119.55    123.03    -29.30     10.68
   21.4790    118.70    123.02    -30.14     10.68
   21.4891    120.84    123.03    -28.01     10.68
   21.4993    119.33    123.04    -29.53     10.68
   21.5094    120.13    123.06    -28.75     10.68
   21.5196    120.35    123.10    -28.57     10.68
   21.5298    120.39    123.14    -28.57     10.68
   21.5399    120.02    123.19    -28.99     10.68
   21.5501    119.60    123.25    -29.47     10.68
   21.5603    118.43    123.33    -30.72     10.68
   21.5704    119.80    123.41    -29.43     10.68
   21.5806    120.12    123.50    -29.20     10.69
   21.5908    118.92    123.60    -30.50     10.69
   21.6009    118.55    123.71    -30.98     10.69
   21.6111    119.61    123.83    -30.04     10.69
   21.6213    118.79    123.97    -31.00     10.69
   21.6314    117.77    124.11    -32.16     10.69
   21.6416    118.38    124.26    -31.70     10.69
   21.6517    118.63    124.42    -31.61     10.69
   21.6619    119.64    124.59    -30.77     10.69
   21.6721    119.55    124.78    -31.05     10.69
   21.6822    119.24    124.97    -31.55     10.69
   21.6924    119.41    125.17    -31.58     10.69
   21.7026    118.30    125.38    -32.90     10.69
   21.7127    118.04    125.60    -33.38     10.69
   21.7229    119.91    125.84    -31.75     10.69
   21.7331    119.27    126.08    -32.63     10.69
   21.7432    120.63    126.33    -31.52     10.69
   21.7534    120.44    126.60    -31.98     10.69
   21.7636    119.16    126.87    -33.53     10.69
   21.7737    120.88    127.16    -32.10     10.69
   21.7839    122.71    127.45    -30.56     10.69
   21.7941    120.45    127.76    -33.13     10.69
   21.8042    122.06    128.07    -31.83     10.69
   21.8144    122.32    128.39    -31.89     10.69
   21.8245    121.41    128.73    -33.14     10.69
   21.8347    121.98    129.07    -32.91     10.69
   21.8449    124.17    129.43    -31.08     10.69
   21.8550    124.93    129.79    -30.68     10.69
   21.8652    122.74    130.17    -33.25     10.69
   21.8754    124.12    130.55    -32.25     10.69
   21.8855    125.66    130.94    -31.10     10.69
   21.8957    124.11    131.35    -33.06     10.70
   21.9059    124.96    131.76    -32.62     10.70
   21.9160    125.29    132.18    -32.71     10.70
   21.9262    123.88    132.61    -34.55     10.70
   21.9364    125.55    133.05    -33.32     10.70
   21.9465    127.35    133.50    -31.97     10.70
   21.9567    125.20    133.96    -34.58     10.70
   21.9668    129.30    134.42    -30.94     10.70
   21.9770    127.13    134.89    -33.58     10.70
   21.9872    125.69    135.38    -35.51     10.70
   21.9973    127.93    135.86    -33.75     10.70
   22.0075    128.77    136.36    -33.41     10.70
   22.0177    127.31    136.87    -35.38     10.70
   22.0278    128.01    137.37    -35.18     10.70
   22.0380    128.12    137.89    -35.59     10.70
   22.0482    128.23    138.42    -36.01     10.70
   22.0583    129.37    138.94    -35.39     10.70
   22.0685    129.07    139.48    -36.23     10.70
   22.0787    127.27    140.02    -38.57     10.70
   22.0888    129.85    140.56    -36.53     10.70
   22.0990    130.26    141.11    -36.67     10.70
   22.1092    129.99    141.66    -37.49     10.70
   22.1193    132.85    142.21    -35.18     10.70
   22.1295    133.44    142.77    -35.15     10.70
   22.1396    131.16    143.32    -37.98     10.70
   22.1498    135.11    143.88    -34.59     10.70
   22.1600    134.61    144.44    -35.65     10.70
   22.1701    133.82    145.00    -37.00     10.70
   22.1803    135.02    145.55    -36.35     10.70
   22.1905    135.54    146.11    -36.39     10.70
   22.2006    134.67    146.66    -37.81     10.70
   22.2108    136.64    147.21    -36.39     10.71
   22.2210    139.95    147.76    -33.63     10.71
   22.2311    137.52    148.30    -36.60     10.71
   22.2413    139.66    148.84    -35.00     10.71
   22.2515    139.68    149.37    -35.51     10.71
   22.2616    139.95    149.89    -35.76     10.71
   22.2718    143.02    150.41    -33.21     10.71
   22.2819    142.02    150.91    -34.71     10.71
   22.2921    142.29    151.40    -34.93     10.71
   22.3023    143.82    151.89    -33.89     10.71
   22.3124    144.97    152.36    -33.21     10.71
   22.3226    144.18    152.82    -34.46     10.71
   22.3328    146.80    153.27    -32.29     10.71
   22.3429    148.23    153.70    -31.29     10.71
   22.3531    147.19    154.11    -32.74     10.71
   22.3633    148.95    154.51    -31.38     10.71
   22.3734    150.66    154.89    -30.05     10.71
   22.3836    149.09    155.26    -31.99     10.71
   22.3938    151.05    155.60    -30.37     10.71
   22.4039    151.09    155.92    -30.65     10.71
   22.4141    153.03    156.23    -29.02     10.71
   22.4243    154.52    156.51    -27.81     10.71
   22.4344    151.85    156.77    -30.74     10.71
   22.4446    153.03    157.00    -29.79     10.71
   22.4547    155.67    157.21    -27.36     10.71
   22.4649    155.10    157.40    -28.12     10.71
   22.4751    156.06    157.56    -27.32     10.71
   22.4852    155.54    157.70    -27.98     10.71
   22.4954    156.46    157.81    -27.17     10.71
   22.5056    154.44    157.89    -29.27     10.71
   22.5157    158.31    157.94    -25.45     10.71
   22.5259    159.23    157.97    -24.56     10.72
   22.5361    157.18    157.97    -26.61     10.72
   22.5462    159.39    157.94    -24.37     10.72
   22.5564    159.37    157.88    -24.33     10.72
   22.5666    157.28    157.79    -26.33     10.72
   22.5767    158.59    157.68    -24.91     10.72
   22.5869    158.33    157.53    -25.02     10.72
   22.5970    158.04    157.36    -25.14     10.72
   22.6072    158.74    157.15    -24.23     10.72
   22.6174    158.25    156.92    -24.49     10.72
   22.6275    157.93    156.67    -24.56     10.72
   22.6377    160.09    156.38    -22.11     10.72
   22.6479    158.98    156.06    -22.90     10.72
   22.6580    158.78    155.72    -22.76     10.72
   22.6682    159.22    155.35    -21.95     10.72
   22.6784    158.50    154.96    -22.28     10.72
   22.6885    157.98    154.54    -22.38     10.72
   22.6987    159.53    154.09    -20.38     10.72
   22.7089    158.26    153.62    -21.18     10.72
   22.7190    158.42    153.13    -20.53     10.72
   22.7292    157.24    152.61    -21.19     10.72
   22.7394    158.09    152.07    -19.80     10.72
   22.7495    157.10    151.52    -20.24     10.72
   22.7597    159.07    150.93    -17.68     10.72
   22.7698    154.99    150.34    -21.17     10.72
   22.7800    154.64    149.71    -20.89     10.72
   22.7902    154.47    149.08    -20.43     10.72
   22.8003    156.46    148.43    -17.79     10.72
   22.8105    153.70    147.75    -19.87     10.72
   22.8207    154.74    147.06    -18.14     10.72
   22.8308    154.63    146.37    -17.56     10.72
   22.8410    150.87    145.65    -20.60     10.72
   22.8512    153.29    144.92    -17.45     10.73
   22.8613    151.58    144.19    -18.43     10.73
   22.8715    151.34    143.44    -17.92     10.73
   22.8817    150.93    142.68    -17.57     10.73
   22.8918    149.34    141.92    -18.40     10.73
   22.9020    148.25    141.14    -18.71     10.73
   22.9121    147.89    140.36    -18.29     10.73
   22.9223    148.75    139.57    -16.64     10.73
   22.9325    147.37    138.77    -17.22     10.73
   22.9426    146.20    137.98    -17.60     10.73
   22.9528    146.40    137.17    -16.59     10.73
   22.9630    143.74    136.36    -18.44     10.73
   22.9731    144.31    135.56    -17.07     10.73
   22.9833    142.65    134.74    -17.91     10.73
   22.9935    142.93    133.93    -16.82     10.73
   23.0036    143.28    133.12    -15.66     10.73
   23.0138    144.14    132.30    -13.98     10.73
   23.0240    140.42    131.49    -16.89     10.73
   23.0341    139.33    130.68    -17.17     10.73
   23.0443    140.97    129.87    -14.72     10.73
   23.0545    136.79    129.06    -18.09     10.73
   23.0646    135.45    128.26    -18.63     10.73
   23.0748    136.66    127.45    -16.61     10.73
   23.0849    135.52    126.66    -16.96     10.73
   23.0951    133.14    125.86    -18.54     10.73
   23.1053    135.39    125.07    -15.50     10.73
   23.1154    130.44    124.28    -19.66     10.73
   23.1256    134.20    123.50    -15.12     10.73
   23.1358    130.43    122.72    -18.11     10.73
   23.1459    129.35    121.96    -18.43     10.73
   23.1561    127.38    121.19    -19.63     10.73
   23.1663    127.74    120.43    -18.51     10.74
   23.1764    128.01    119.68    -17.49     10.74
   23.1866    126.16    118.93    -18.59     10.74
   23.1968    127.44    118.19    -16.57     10.74
   23.2069    125.60    117.46    -17.68     10.74
   23.2171    123.40    116.74    -19.16     10.74
   23.2272    124.31    116.02    -17.53     10.74
   23.2374    124.51    115.31    -16.62     10.74
   23.2476    122.37    114.60    -18.05     10.74
   23.2577    121.80    113.91    -17.93     10.74
   23.2679    120.10    113.22    -18.94     10.74
   23.2781    120.88    112.54    -17.48     10.74
   23.2882    118.36    111.87    -19.33     10.74
   23.2984    118.06    111.20    -18.96     10.74
   23.3086    118.16    110.54    -18.20     10.74
   23.3187    116.30    109.90    -19.42     10.74
   23.3289    115.35    109.25    -19.72     10.74
   23.3391    113.33    108.61    -21.10     10.74
   23.3492    114.88    107.99    -18.93     10.74
   23.3594    114.12    107.37    -19.07     10.74
   23.3695    114.31    106.76    -18.27     10.74
   23.3797    112.23    106.16    -19.75     10.74
   23.3899    111.32    105.56    -20.06     10.74
   23.4000    111.17    104.97    -19.62     10.74
   23.4102    109.11    104.39    -21.10     10.74
   23.4204    110.27    103.81    -19.36     10.74
   23.4305    108.76    103.25    -20.31     10.74
   23.4407    109.14    102.69    -19.37     10.74
   23.4509    107.82    102.14    -20.14     10.74
   23.4610    106.88    101.59    -20.53     10.74
   23.4712    106.52    101.06    -20.36     10.74
   23.4814    106.45    100.52    -19.89     10.75
   23.4915    105.98    100.00    -19.84     10.75
   23.5017    103.24     99.48    -22.06     10.75
   23.5119    104.15     98.97    -20.64     10.75
   23.5220    103.92     98.47    -20.37     10.75
   23.5322    102.49     97.98    -21.31     10.75
   23.5423    102.37     97.49    -20.94     10.75
   23.5525    101.00     97.00    -21.82     10.75
   23.5627    100.71     96.53    -21.64     10.75
   23.5728    101.19     96.06    -20.69     10.75
   23.5830     98.88     95.59    -22.53     10.75
   23.5932    100.31     95.13    -20.64     10.75
   23.6033     99.01     94.68    -21.49     10.75
   23.6135     98.49     94.24    -21.57     10.75
   23.6237     95.65     93.79    -23.96     10.75
   23.6338     96.01     93.36    -23.17     10.75
   23.6440     97.20     92.93    -21.55     10.75
   23.6542     94.73     92.51    -23.60     10.75
   23.6643     95.52     92.09    -22.39     10.75
   23.6745     93.12     91.68    -24.38     10.75
   23.6846     94.20     91.27    -22.89     10.75
   23.6948     93.61     90.87    -23.08     10.75
   23.7050     93.65     90.47    -22.64     10.75
   23.7151     93.16     90.09    -22.75     10.75
   23.7253     92.88     89.70    -22.64     10.75
   23.7355     92.74     89.31    -22.39     10.75
   23.7456     91.85     88.94    -22.91     10.75
   23.7558     90.95     88.57    -23.44     10.75
   23.7660     91.07     88.20    -22.95     10.75
   23.7761     89.64     87.84    -24.02     10.75
   23.7863     89.57     87.48    -23.73     10.75
   23.7965     88.45     87.13    -24.50     10.76
   23.8066     88.56     86.78    -24.04     10.76
   23.8168     87.80     86.43    -24.45     10.76
   23.8270     86.23     86.09    -25.68     10.76
   23.8371     88.26     85.76    -23.32     10.76
   23.8473     86.33     85.42    -24.91     10.76
   23.8574     87.71     85.10    -23.21     10.76
   23.8676     86.27     84.77    -24.32     10.76
   23.8778     85.41     84.45    -24.86     10.76
   23.8879     86.27     84.14    -23.69     10.76
   23.8981     85.23     83.82    -24.41     10.76
   23.9083     83.73     83.51    -25.60     10.76
   23.9184     83.50     83.21    -25.53     10.76
   23.9286     84.21     82.91    -24.52     10.76
   23.9388     83.13     82.61    -25.30     10.76
   23.9489     82.63     82.31    -25.50     10.76
   23.9591     82.62     82.02    -25.22     10.76
   23.9693     82.66     81.73    -24.89     10.76
   23.9794     81.86     81.45    -25.41     10.76
   23.9896     82.16     81.17    -24.83     10.76
   23.9997     79.88     80.89    -26.83     10.76
   24.0099     80.42     80.61    -26.01     10.76
   24.0201     80.87     80.34    -25.29     10.76
   24.0302     79.46     80.07    -26.43     10.76
   24.0404     79.89     79.80    -25.73     10.76
   24.0506     79.57     79.54    -25.79     10.76
   24.0607     79.66     79.28    -25.44     10.76
   24.0709     78.04     79.02    -26.80     10.76
   24.0811     79.49     78.77    -25.10     10.76
   24.0912     77.32     78.52    -27.02     10.76
   24.1014     78.88     78.27    -25.21     10.76
   24.1116     77.97     78.02    -25.87     10.76
   24.1217     77.88     77.77    -25.71     10.77
   24.1319     76.68     77.53    -26.67     10.77
   24.1421     76.62     77.29    -26.49     10.77
   24.1522     75.51     77.06    -27.37     10.77
   24.1624     76.94     76.82    -25.70     10.77
   24.1725     74.71     76.59    -27.70     10.77
   24.1827     75.43     76.36    -26.75     10.77
   24.1929     75.32     76.13    -26.63     10.77
   24.2030     74.85     75.91    -26.88     10.77
   24.2132     74.05     75.68    -27.45     10.77
   24.2234     75.12     75.46    -26.16     10.77
   24.2335     74.73     75.25    -26.34     10.77
   24.2437     74.70     75.03    -26.15     10.77
   24.2539     72.44     74.81    -28.19     10.77
   24.2640     72.38     74.60    -28.04     10.77
   24.2742     74.25     74.39    -25.96     10.77
   24.2844     72.95     74.18    -27.05     10.77
   24.2945     71.87     73.98    -27.93     10.77
   24.3047     71.70     73.77    -27.89     10.77
   24.3148     70.88     73.57    -28.51     10.77
   24.3250     72.06     73.37    -27.13     10.77
   24.3352     72.90     73.17    -26.09     10.77
   24.3453     71.57     72.98    -27.23     10.77
   24.3555     71.67     72.78    -26.93     10.77
   24.3657     70.29     72.59    -28.12     10.77
   24.3758     71.79     72.40    -26.43     10.77
   24.3860     69.66     72.21    -28.37     10.77
   24.3962     70.75     72.02    -27.09     10.77
   24.4063     69.70     71.84    -27.96     10.77
   24.4165     69.20     71.65    -28.27     10.77
   24.4267     69.85     71.47    -27.44     10.77
   24.4368     68.23     71.29    -28.88     10.78
   24.4470     69.10     71.11    -27.83     10.78
   24.4572     70.32     70.93    -26.43     10.78
   24.4673     69.59     70.75    -26.98     10.78
   24.4775     69.26     70.58    -27.14     10.78
   24.4876     68.26     70.40    -27.96     10.78
   24.4978     67.63     70.23    -28.42     10.78
   24.5080     69.46     70.06    -26.42     10.78
   24.5181     66.48     69.89    -29.23     10.78
   24.5283     67.82     69.72    -27.72     10.78
   24.5385     67.87     69.56    -27.51     10.78
   24.5486     68.18     69.39    -27.03     10.78
   24.5588     66.93     69.23    -28.12     10.78
   24.5690     66.58     69.07    -28.31     10.78
   24.5791     66.84     68.91    -27.89     10.78
   24.5893     66.48     68.75    -28.09     10.78
   24.5995     66.77     68.59    -27.64     10.78
   24.6096     67.90     68.43    -26.35     10.78
   24.6198     66.07     68.28    -28.03     10.78
   24.6299     66.36     68.12    -27.58     10.78
   24.6401     65.99     67.97    -27.80     10.78
   24.6503     64.32     67.82    -29.32     10.78
   24.6604     65.10     67.67    -28.39     10.78
   24.6706     64.73     67.52    -28.61     10.78
   24.6808     64.95     67.37    -28.24     10.78
   24.6909     64.87     67.22    -28.17     10.78
   24.7011     64.14     67.08    -28.76     10.78
   24.7113     64.64     66.93    -28.11     10.78
   24.7214     64.56     66.79    -28.05     10.78
   24.7316     65.16     66.64    -27.30     10.78
   24.7418     63.91     66.50    -28.41     10.78
   24.7519     64.23     66.36    -27.95     10.79
   24.7621     65.15     66.22    -26.89     10.79
   24.7723     63.30     66.08    -28.60     10.79
   24.7824     64.20     65.95    -27.57     10.79
   24.7926     64.00     65.81    -27.63     10.79
   24.8027     63.26     65.67    -28.23     10.79
   24.8129     63.17     65.54    -28.19     10.79
   24.8231     62.90     65.41    -28.33     10.79
   24.8332     63.77     65.27    -27.32     10.79
   24.8434     62.64     65.14    -28.32     10.79
   24.8536     63.05     65.01    -27.78     10.79
   24.8637     62.52     64.88    -28.18     10.79
   24.8739     61.93     64.75    -28.64     10.79
   24.8841     63.09     64.62    -27.35     10.79
   24.8942     62.76     64.50    -27.56     10.79
   24.9044     62.32     64.37    -27.87     10.79
   24.9146     63.22     64.25    -26.85     10.79
   24.9247     61.78     64.12    -28.16     10.79
   24.9349     61.76     64.00    -28.06     10.79
   24.9450     62.30     63.88    -27.40     10.79
   24.9552     61.20     63.75    -28.37     10.79
   24.9654     62.84     63.63    -26.61     10.79
   24.9755     61.98     63.51    -27.35     10.79
   24.9857     60.51     63.39    -28.70     10.79
   24.9959     62.29     63.27    -26.80     10.79
   25.0060     61.01     63.16    -27.97     10.79
   25.0162     61.32     63.04    -27.54     10.79
   25.0264     61.54     62.92    -27.20     10.79
   25.0365     61.49     62.81    -27.14     10.79
   25.0467     60.77     62.69    -27.74     10.79
   25.0569     59.69     62.58    -28.71     10.79
   25.0670     59.38     62.47    -28.91     10.80
   25.0772     61.12     62.35    -27.05     10.80
   25.0874     60.65     62.24    -27.41     10.80
   25.0975     61.10     62.13    -26.85     10.80
   25.1077     60.63     62.02    -27.21     10.80
   25.1178     59.22     61.91    -28.51     10.80
   25.1280     60.41     61.80    -27.21     10.80
   25.1382     60.25     61.69    -27.26     10.80
   25.1483     60.43     61.59    -26.98     10.80
   25.1585     59.67     61.48    -27.63     10.80
   25.1687     60.13     61.37    -27.06     10.80
   25.1788     58.90     61.27    -28.19     10.80
   25.1890     60.04     61.16    -26.94     10.80
   25.1992     60.38     61.06    -26.50     10.80
   25.2093     60.33     60.95    -26.44     10.80
   25.2195     59.40     60.85    -27.27     10.80
   25.2297     59.40     60.75    -27.17     10.80
   25.2398     59.60     60.65    -26.87     10.80
   25.2500     59.38     60.55    -26.99     10.80
   25.2601     58.86     60.45    -27.41     10.80
   25.2703     58.90     60.35    -27.27     10.80
   25.2805     58.92     60.25    -27.15     10.80
   25.2906     59.16     60.15    -26.81     10.80
   25.3008     57.77     60.05    -28.10     10.80
   25.3110     58.95     59.95    -26.82     10.80
   25.3211     58.34     59.86    -27.34     10.80
   25.3313     58.98     59.76    -26.60     10.80
   25.3415     58.13     59.66    -27.35     10.80
   25.3516     57.78     59.57    -27.61     10.80
   25.3618     58.74     59.47    -26.55     10.80
   25.3720     57.84     59.38    -27.36     10.80
   25.3821     58.91     59.29    -26.20     10.80
   25.3923     57.75     59.19    -27.26     10.81
   25.4024     57.69     59.10    -27.23     10.81
   25.4126     58.28     59.01    -26.55     10.81
   25.4228     57.86     58.92    -26.88     10.81
   25.4329     58.36     58.83    -26.29     10.81
   25.4431     57.97     58.73    -26.58     10.81
   25.4533     57.76     58.64    -26.70     10.81
   25.4634     59.05     58.56    -25.33     10.81
   25.4736     58.12     58.47    -26.17     10.81
   25.4838     57.70     58.38    -26.50     10.81
   25.4939     58.07     58.29    -26.04     10.81
   25.5041     58.05     58.20    -25.97     10.81
   25.5143     57.56     58.12    -26.38     10.81
   25.5244     56.59     58.03    -27.26     10.81
   25.5346     57.85     57.94    -25.91     10.81
   25.5448     57.64     57.86    -26.04     10.81
   25.5549     56.78     57.77    -26.81     10.81
   25.5651     57.54     57.69    -25.97     10.81
   25.5752     56.75     57.60    -26.67     10.81
   25.5854     57.16     57.52    -26.18     10.81
   25.5956     57.18     57.44    -26.08     10.81
   25.6057     57.06     57.36    -26.12     10.81
   25.6159     55.65     57.27    -27.44     10.81
   25.6261     57.11     57.19    -25.90     10.81
   25.6362     56.21     57.11    -26.72     10.81
   25.6464     56.99     57.03    -25.86     10.81
   25.6566     56.35     56.95    -26.42     10.81
   25.6667     57.05     56.87    -25.64     10.81
   25.6769     56.49     56.79    -26.12     10.81
   25.6871     56.60     56.71    -25.93     10.81
   25.6972     57.09     56.63    -25.36     10.81
   25.7074     57.02     56.55    -25.35     10.82
   25.7175     57.01     56.48    -25.29     10.82
   25.7277     56.99     56.40    -25.23     10.82
   25.7379     55.66     56.32    -26.48     10.82
   25.7480     56.04     56.25    -26.03     10.82
   25.7582     57.73     56.17    -24.26     10.82
   25.7684     55.34     56.09    -26.57     10.82
   25.7785     56.07     56.02    -25.77     10.82
   25.7887     55.26     55.94    -26.50     10.82
   25.7989     55.63     55.87    -26.06     10.82
   25.8090     57.11     55.80    -24.51     10.82
   25.8192     54.77     55.72    -26.77     10.82
   25.8294     56.18     55.65    -25.29     10.82
   25.8395     55.55     55.58    -25.85     10.82
   25.8497     55.87     55.50    -25.45     10.82
   25.8599     55.49     55.43    -25.76     10.82
   25.8700     56.07     55.36    -25.11     10.82
   25.8802     54.73     55.29    -26.38     10.82
   25.8903     55.31     55.22    -25.73     10.82
   25.9005     56.34     55.15    -24.63     10.82
   25.9107     57.72     55.08    -23.18     10.82
   25.9208     55.81     55.01    -25.02     10.82
   25.9310     55.56     54.94    -25.20     10.82
   25.9412     55.00     54.87    -25.69     10.82
   25.9513     55.68     54.80    -24.94     10.82
   25.9615     54.16     54.73    -26.39     10.82
   25.9717     55.12     54.67    -25.37     10.82
   25.9818     55.44     54.60    -24.98     10.82
   25.9920     54.53     54.53    -25.82     10.82
   26.0022     54.48     54.47    -25.81     10.82
   26.0123     54.83     54.40    -25.39     10.82
   26.0225     55.29     54.33    -24.86     10.83
   26.0326     54.12     54.27    -25.97     10.83
   26.0428     54.32     54.20    -25.70     10.83
   26.0530     54.12     54.14    -25.84     10.83
   26.0631     54.78     54.08    -25.12     10.83
   26.0733     55.12     54.01    -24.71     10.83
   26.0835     54.56     53.95    -25.21     10.83
   26.0936     54.41     53.89    -25.30     10.83
   26.1038     53.49     53.82    -26.15     10.83
   26.1140     54.66     53.76    -24.92     10.83
   26.1241     53.28     53.70    -26.24     10.83
   26.1343     53.84     53.64    -25.62     10.83
   26.1445     53.16     53.58    -26.24     10.83
   26.1546     54.36     53.52    -24.98     10.83
   26.1648     54.46     53.46    -24.82     10.83
   26.1750     53.48     53.40    -25.74     10.83
   26.1851     53.52     53.34    -25.64     10.83
   26.1953     52.67     53.28    -26.43     10.83
   26.2054     53.91     53.22    -25.13     10.83
   26.2156     53.67     53.16    -25.31     10.83
   26.2258     54.45     53.10    -24.47     10.83
   26.2359     53.93     53.04    -24.93     10.83
   26.2461     53.81     52.99    -25.00     10.83
   26.2563     52.27     52.93    -26.48     10.83
   26.2664     54.19     52.87    -24.50     10.83
   26.2766     53.35     52.82    -25.29     10.83
   26.2868     53.32     52.76    -25.26     10.83
   26.2969     53.12     52.71    -25.41     10.83
   26.3071     52.38     52.65    -26.09     10.83
   26.3173     53.13     52.60    -25.29     10.83
   26.3274     53.54     52.54    -24.82     10.83
   26.3376     53.57     52.49    -24.74     10.84
   26.3477     52.14     52.44    -26.12     10.84
   26.3579     52.00     52.38    -26.20     10.84
   26.3681     52.17     52.33    -25.98     10.84
   26.3782     52.89     52.28    -25.21     10.84
   26.3884     51.62     52.23    -26.43     10.84
   26.3986     53.06     52.17    -24.93     10.84
   26.4087     52.60     52.12    -25.34     10.84
   26.4189     52.87     52.07    -25.02     10.84
   26.4291     52.59     52.02    -25.25     10.84
   26.4392     51.46     51.97    -26.33     10.84
   26.4494     52.16     51.92    -25.58     10.84
   26.4596     51.77     51.87    -25.92     10.84
   26.4697     51.16     51.83    -26.49     10.84
   26.4799     51.40     51.78    -26.20     10.84
   26.4901     51.45     51.73    -26.10     10.84
   26.5002     51.52     51.68    -25.98     10.84
   26.5104     52.02     51.63    -25.43     10.84
   26.5205     52.12     51.59    -25.29     10.84
   26.5307     50.81     51.54    -26.55     10.84
   26.5409     51.59     51.50    -25.73     10.84
   26.5510     51.98     51.45    -25.29     10.84
   26.5612     51.65     51.41    -25.58     10.84
   26.5714     50.91     51.36    -26.27     10.84
   26.5815     51.77     51.32    -25.37     10.84
   26.5917     51.54     51.27    -25.55     10.84
   26.6019     51.27     51.23    -25.78     10.84
   26.6120     50.61     51.19    -26.40     10.84
   26.6222     50.73     51.15    -26.24     10.84
   26.6324     52.46     51.10    -24.46     10.84
   26.6425     51.46     51.06    -25.42     10.84
   26.6527     51.03     51.02    -25.81     10.84
   26.6628     50.61     50.98    -26.19     10.85
   26.6730     50.51     50.94    -26.25     10.85
   26.6832     50.29     50.90    -26.43     10.85
   26.6933     51.09     50.86    -25.59     10.85
   26.7035     51.29     50.82    -25.35     10.85
   26.7137     51.76     50.78    -24.84     10.85
   26.7238     50.42     50.75    -26.15     10.85
   26.7340     51.27     50.71    -25.26     10.85
   26.7442     50.05     50.67    -26.44     10.85
   26.7543     49.67     50.64    -26.79     10.85
   26.7645     50.05     50.60    -26.37     10.85
   26.7747     50.48     50.56    -25.90     10.85
   26.7848     49.70     50.53    -26.65     10.85
   26.7950     49.87     50.50    -26.45     10.85
   26.8052     51.00     50.46    -25.28     10.85
   26.8153     50.67     50.43    -25.58     10.85
   26.8255     49.51     50.40    -26.71     10.85
   26.8356     49.84     50.36    -26.34     10.85
   26.8458     50.17     50.33    -25.98     10.85
   26.8560     50.29     50.30    -25.83     10.85
   26.8661     51.17     50.27    -24.92     10.85
   26.8763     51.62     50.24    -24.44     10.85
   26.8865     50.31     50.21    -25.72     10.85
   26.8966     50.46     50.18    -25.54     10.85
   26.9068     50.35     50.15    -25.62     10.85
   26.9170     49.39     50.12    -26.55     10.85
   26.9271     50.38     50.10    -25.54     10.85
   26.9373     49.52     50.07    -26.37     10.85
   26.9475     49.95     50.04    -25.91     10.85
   26.9576     49.41     50.02    -26.43     10.85
   26.9678     50.73     49.99    -25.08     10.85
   26.9779     51.05     49.97    -24.74     10.86
   26.9881     50.37     49.94    -25.39     10.86
   26.9983     50.39     49.92    -25.35     10.86
   27.0084     49.60     49.90    -26.12     10.86
   27.0186     49.02     49.88    -26.68     10.86
   27.0288     50.37     49.86    -25.31     10.86
   27.0389     50.26     49.84    -25.40     10.86
   27.0491     48.93     49.81    -26.70     10.86
   27.0593     49.45     49.80    -26.17     10.86
   27.0694     49.30     49.78    -26.30     10.86
   27.0796     50.29     49.76    -25.29     10.86
   27.0898     49.37     49.74    -26.19     10.86
   27.0999     48.64     49.73    -26.91     10.86
   27.1101     48.21     49.71    -27.32     10.86
   27.1202     49.55     49.69    -25.96     10.86
   27.1304     50.03     49.68    -25.47     10.86
   27.1406     49.23     49.67    -26.26     10.86
   27.1507     49.51     49.65    -25.96     10.86
   27.1609     48.28     49.64    -27.18     10.86
   27.1711     49.63     49.63    -25.82     10.86
   27.1812     50.08     49.62    -25.36     10.86
   27.1914     50.33     49.61    -25.10     10.86
   27.2016     49.18     49.60    -26.24     10.86
   27.2117     48.97     49.59    -26.44     10.86
   27.2219     49.09     49.58    -26.31     10.86
   27.2321     49.90     49.58    -25.50     10.86
   27.2422     48.10     49.57    -27.29     10.86
   27.2524     49.37     49.57    -26.02     10.86
   27.2626     49.16     49.56    -26.22     10.86
   27.2727     49.33     49.56    -26.05     10.86
   27.2829     49.85     49.56    -25.53     10.86
   27.2930     49.19     49.56    -26.19     10.87
   27.3032     49.08     49.56    -26.30     10.87
   27.3134     48.94     49.56    -26.44     10.87
   27.3235     49.34     49.56    -26.04     10.87
   27.3337     49.37     49.56    -26.01     10.87
   27.3439     49.16     49.56    -26.22     10.87
   27.3540     49.33     49.57    -26.06     10.87
   27.3642     49.21     49.57    -26.18     10.87
   27.3744     48.84     49.58    -26.56     10.87
   27.3845     48.83     49.59    -26.58     10.87
   27.3947     49.51     49.60    -25.91     10.87
   27.4049     48.16     49.61    -27.27     10.87
   27.4150     49.32     49.62    -26.12     10.87
   27.4252     49.23     49.63    -26.22     10.87
   27.4353     48.84     49.64    -26.62     10.87
   27.4455     48.80     49.66    -26.68     10.87
   27.4557     49.50     49.67    -25.99     10.87
   27.4658     49.01     49.69    -26.50     10.87
   27.4760     50.32     49.71    -25.21     10.87
   27.4862     48.72     49.73    -26.83     10.87
   27.4963     48.58     49.75    -26.99     10.87
   27.5065     48.93     49.77    -26.66     10.87
   27.5167     50.18     49.80    -25.44     10.87
   27.5268     49.27     49.82    -26.37     10.87
   27.5370     49.30     49.85    -26.37     10.87
   27.5472     48.51     49.87    -27.18     10.87
   27.5573     49.27     49.90    -26.45     10.87
   27.5675     49.45     49.93    -26.30     10.87
   27.5777     49.30     49.97    -26.49     10.87
   27.5878     49.35     50.00    -26.47     10.87
   27.5980     50.05     50.03    -25.80     10.87
   27.6081     49.13     50.07    -26.76     10.88
   27.6183     49.43     50.11    -26.50     10.88
   27.6285     49.89     50.15    -26.08     10.88
   27.6386     49.81     50.19    -26.20     10.88
   27.6488     49.27     50.23    -26.78     10.88
   27.6590     49.82     50.28    -26.28     10.88
   27.6691     50.00     50.33    -26.15     10.88
   27.6793     48.83     50.37    -27.36     10.88
   27.6895     48.84     50.43    -27.41     10.88
   27.6996     49.38     50.48    -26.92     10.88
   27.7098     49.43     50.53    -26.92     10.88
   27.7200     48.90     50.59    -27.51     10.88
   27.7301     50.22     50.65    -26.25     10.88
   27.7403     49.88     50.71    -26.65     10.88
   27.7504     50.01     50.77    -26.58     10.88
   27.7606     49.40     50.83    -27.25     10.88
   27.7708     50.49     50.90    -26.23     10.88
   27.7809     50.20     50.97    -26.59     10.88
   27.7911     49.36     51.04    -27.50     10.88
   27.8013     50.02     51.12    -26.92     10.88
   27.8114     50.50     51.19    -26.51     10.88
   27.8216     50.57     51.27    -26.52     10.88
   27.8318     50.79     51.35    -26.38     10.88
   27.8419     50.64     51.44    -26.62     10.88
   27.8521     50.75     51.52    -26.59     10.88
   27.8623     49.89     51.61    -27.54     10.88
   27.8724     50.80     51.70    -26.72     10.88
   27.8826     50.80     51.80    -26.82     10.88
   27.8928     51.35     51.90    -26.37     10.88
   27.9029     51.62     52.00    -26.20     10.88
   27.9131     50.84     52.10    -27.08     10.88
   27.9232     51.61     52.21    -26.42     10.88
   27.9334     50.62     52.32    -27.52     10.89
   27.9436     52.13     52.43    -26.12     10.89
   27.9537     51.25     52.54    -27.11     10.89
   27.9639     51.33     52.66    -27.15     10.89
   27.9741     52.63     52.79    -25.98     10.89
   27.9842     51.27     52.91    -27.46     10.89
   27.9944     52.12     53.04    -26.74     10.89
   28.0046     52.29     53.17    -26.70     10.89
   28.0147     53.94     53.31    -25.19     10.89
   28.0249     52.52     53.45    -26.75     10.89
   28.0351     53.30     53.59    -26.11     10.89
   28.0452     53.01     53.74    -26.55     10.89
   28.0554     53.61     53.89    -26.10     10.89
   28.0655     52.99     54.04    -26.87     10.89
   28.0757     53.00     54.20    -27.02     10.89
   28.0859     54.48     54.36    -25.70     10.89
   28.0960     53.13     54.53    -27.22     10.89
   28.1062     55.97     54.70    -24.55     10.89
   28.1164     54.21     54.87    -26.48     10.89
   28.1265     54.52     55.05    -26.35     10.89
   28.1367     55.34     55.23    -25.71     10.89
   28.1469     53.76     55.42    -27.48     10.89
   28.1570     55.55     55.61    -25.88     10.89
   28.1672     54.63     55.81    -27.00     10.89
   28.1774     55.94     56.00    -25.88     10.89
   28.1875     57.40     56.21    -24.63     10.89
   28.1977     56.30     56.41    -25.93     10.89
   28.2079     56.89     56.63    -25.56     10.89
   28.2180     55.82     56.84    -26.84     10.89
   28.2282     56.64     57.06    -26.24     10.89
   28.2383     57.48     57.28    -25.62     10.89
   28.2485     57.60     57.51    -25.73     10.90
   28.2587     58.29     57.74    -25.27     10.90
   28.2688     58.68     57.98    -25.12     10.90
   28.2790     58.64     58.21    -25.39     10.90
   28.2892     57.68     58.46    -26.60     10.90
   28.2993     59.86     58.70    -24.66     10.90
   28.3095     58.43     58.95    -26.34     10.90
   28.3197     59.10     59.20    -25.92     10.90
   28.3298     59.10     59.46    -26.18     10.90
   28.3400     59.80     59.72    -25.74     10.90
   28.3502     60.32     59.98    -25.48     10.90
   28.3603     60.80     60.24    -25.26     10.90
   28.3705     61.08     60.50    -25.24     10.90
   28.3806     61.68     60.77    -24.91     10.90
   28.3908     60.69     61.04    -26.17     10.90
   28.4010     61.16     61.31    -25.97     10.90
   28.4111     61.72     61.58    -25.68     10.90
   28.4213     61.93     61.85    -25.74     10.90
   28.4315     62.26     62.12    -25.68     10.90
   28.4416     62.86     62.39    -25.35     10.90
   28.4518     63.15     62.66    -25.33     10.90
   28.4620     61.98     62.93    -26.77     10.90
   28.4721     61.83     63.19    -27.18     10.90
   28.4823     62.54     63.46    -26.74     10.90
   28.4925     62.90     63.72    -26.64     10.90
   28.5026     63.59     63.97    -26.20     10.90
   28.5128     64.63     64.23    -25.42     10.90
   28.5230     65.05     64.48    -25.25     10.90
   28.5331     64.34     64.72    -26.20     10.90
   28.5433     64.65     64.96    -26.13     10.90
   28.5534     64.52     65.19    -26.49     10.90
   28.5636     65.41     65.42    -25.83     10.91
   28.5738     66.57     65.63    -24.88     10.91
   28.5839     65.57     65.84    -26.09     10.91
   28.5941     66.13     66.04    -25.73     10.91
   28.6043     67.10     66.24    -24.96     10.91
   28.6144     66.18     66.42    -26.06     10.91
   28.6246     66.96     66.59    -25.45     10.91
   28.6348     66.12     66.75    -26.45     10.91
   28.6449     66.20     66.89    -26.51     10.91
   28.6551     67.46     67.03    -25.39     10.91
   28.6653     66.80     67.15    -26.17     10.91
   28.6754     66.09     67.26    -26.99     10.91
   28.6856     67.13     67.36    -26.05     10.91
   28.6957     67.14     67.44    -26.12     10.91
   28.7059     67.23     67.51    -26.10     10.91
   28.7161     67.40     67.56    -25.98     10.91
   28.7262     67.92     67.60    -25.50     10.91
   28.7364     67.15     67.62    -26.29     10.91
   28.7466     67.40     67.63    -26.05     10.91
   28.7567     67.32     67.62    -26.12     10.91
   28.7669     66.64     67.60    -26.78     10.91
   28.7771     67.01     67.56    -26.37     10.91
   28.7872     67.28     67.51    -26.05     10.91
   28.7974     66.54     67.44    -26.72     10.91
   28.8076     67.16     67.35    -26.01     10.91
   28.8177     67.13     67.26    -25.95     10.91
   28.8279     67.04     67.14    -25.92     10.91
   28.8381     65.41     67.01    -27.42     10.91
   28.8482     65.96     66.87    -26.73     10.91
   28.8584     65.53     66.72    -27.01     10.91
   28.8685     65.77     66.55    -26.60     10.91
   28.8787     65.99     66.37    -26.20     10.92
   28.8889     65.23     66.18    -26.77     10.92
   28.8990     65.90     65.98    -25.90     10.92
   28.9092     65.31     65.76    -26.27     10.92
   28.9194     64.95     65.54    -26.41     10.92
   28.9295     63.66     65.30    -27.46     10.92
   28.9397     65.08     65.06    -25.80     10.92
   28.9499     65.06     64.81    -25.57     10.92
   28.9600     65.40     64.55    -24.97     10.92
   28.9702     64.89     64.28    -25.21     10.92
   28.9804     62.66     64.01    -27.17     10.92
   28.9905     64.65     63.73    -24.90     10.92
   29.0007     63.85     63.44    -25.41     10.92
   29.0108     62.26     63.15    -26.71     10.92
   29.0210     62.46     62.86    -26.22     10.92
   29.0312     62.30     62.56    -26.08     10.92
   29.0413     62.59     62.26    -25.49     10.92
   29.0515     62.57     61.96    -25.21     10.92
   29.0617     62.88     61.65    -24.59     10.92
   29.0718     61.71     61.35    -25.46     10.92
   29.0820     60.95     61.04    -25.91     10.92
   29.0922     61.83     60.73    -24.72     10.92
   29.1023     61.37     60.42    -24.87     10.92
   29.1125     60.71     60.12    -25.23     10.92
   29.1227     60.99     59.81    -24.64     10.92
   29.1328     59.20     59.50    -26.12     10.92
   29.1430     59.85     59.20    -25.17     10.92
   29.1531     60.77     58.90    -23.95     10.92
   29.1633     59.88     58.59    -24.53     10.92
   29.1735     59.18     58.29    -24.93     10.92
   29.1836     59.71     58.00    -24.11     10.92
   29.1938     58.19     57.70    -25.33     10.92
   29.2040     57.92     57.41    -25.31     10.93
   29.2141     57.86     57.12    -25.08     10.93
   29.2243     58.18     56.84    -24.48     10.93
   29.2345     57.45     56.56    -24.93     10.93
   29.2446     58.16     56.28    -23.94     10.93
   29.2548     56.41     56.01    -25.42     10.93
   29.2650     56.14     55.73    -25.41     10.93
   29.2751     56.05     55.47    -25.24     10.93
   29.2853     55.51     55.21    -25.52     10.93
   29.2955     56.18     54.95    -24.59     10.93
   29.3056     55.73     54.69    -24.78     10.93
   29.3158     55.10     54.44    -25.16     10.93
   29.3259     54.92     54.20    -25.10     10.93
   29.3361     55.79     53.96    -23.99     10.93
   29.3463     54.97     53.72    -24.57     10.93
   29.3564     54.80     53.48    -24.50     10.93
   29.3666     55.44     53.25    -23.63     10.93
   29.3768     53.44     53.03    -25.41     10.93
   29.3869     54.60     52.81    -24.03     10.93
   29.3971     54.13     52.59    -24.28     10.93
   29.4073     52.45     52.37    -25.74     10.93
   29.4174     52.31     52.17    -25.68     10.93
   29.4276     54.09     51.96    -23.69     10.93
   29.4378     52.41     51.76    -25.17     10.93
   29.4479     52.84     51.56    -24.54     10.93
   29.4581     52.29     51.37    -24.90     10.93
   29.4682     52.18     51.18    -24.82     10.93
   29.4784     51.41     50.99    -25.40     10.93
   29.4886     51.74     50.81    -24.89     10.93
   29.4987     51.65     50.63    -24.80     10.93
   29.5089     51.02     50.45    -25.25     10.93
   29.5191     52.50     50.28    -23.60     10.94
   29.5292     51.43     50.11    -24.50     10.94
   29.5394     51.38     49.95    -24.39     10.94
   29.5496     51.38     49.78    -24.22     10.94
   29.5597     49.93     49.62    -25.51     10.94
   29.5699     50.02     49.47    -25.27     10.94
   29.5801     51.13     49.31    -24.00     10.94
   29.5902     49.97     49.16    -25.01     10.94
   29.6004     49.79     49.02    -25.05     10.94
   29.6106     50.41     48.87    -24.28     10.94
   29.6207     50.18     48.73    -24.37     10.94
   29.6309     49.40     48.59    -25.01     10.94
   29.6410     50.83     48.45    -23.44     10.94
   29.6512     48.57     48.32    -25.57     10.94
   29.6614     48.58     48.19    -25.43     10.94
   29.6715     48.68     48.06    -25.20     10.94
   29.6817     48.57     47.93    -25.18     10.94
   29.6919     48.80     47.81    -24.83     10.94
   29.7020     48.54     47.69    -24.97     10.94
   29.7122     47.49     47.56    -25.89     10.94
   29.7224     48.98     47.45    -24.29     10.94
   29.7325     47.96     47.33    -25.19     10.94
   29.7427     47.66     47.22    -25.38     10.94
   29.7529     47.09     47.10    -25.83     10.94
   29.7630     47.55     46.99    -25.26     10.94
   29.7732     47.58     46.88    -25.12     10.94
   29.7833     46.74     46.78    -25.86     10.94
   29.7935     46.97     46.67    -25.52     10.94
   29.8037     47.02     46.57    -25.37     10.94
   29.8138     45.90     46.46    -26.38     10.94
   29.8240     47.85     46.36    -24.33     10.94
   29.8342     46.98     46.26    -25.10     10.95
   29.8443     46.10     46.16    -25.88     10.95
   29.8545     46.23     46.07    -25.66     10.95
   29.8647     46.13     45.97    -25.66     10.95
   29.8748     46.73     45.88    -24.97     10.95
   29.8850     46.01     45.78    -25.59     10.95
   29.8952     44.73     45.69    -26.78     10.95
   29.9053     45.91     45.60    -25.51     10.95
   29.9155     47.10     45.51    -24.23     10.95
   29.9257     45.30     45.42    -25.94     10.95
   29.9358     46.43     45.33    -24.72     10.95
   29.9460     46.81     45.24    -24.25     10.95
   29.9561     45.48     45.15    -25.49     10.95
   29.9663     44.79     45.07    -26.10     10.95
   29.9765     45.40     44.98    -25.40     10.95
   29.9866     44.53     44.90    -26.19     10.95
   29.9968     45.45     44.81    -25.18     10.95
   30.0070     44.93     44.73    -25.62     10.95
   30.0171     45.87     44.65    -24.60     10.95
   30.0273     46.40     44.56    -23.98     10.95
   30.0375     45.12     44.48    -25.18     10.95
   30.0476     44.73     44.40    -25.49     10.95
   30.0578     45.76     44.32    -24.38     10.95
   30.0680     45.88     44.24    -24.18     10.95
   30.0781     45.13     44.16    -24.85     10.95
   30.0883     45.70     44.08    -24.20     10.95
   30.0984     44.80     44.00    -25.02     10.95
   30.1086     44.76     43.92    -24.98     10.95
   30.1188     44.93     43.84    -24.73     10.95
   30.1289     44.19     43.76    -25.39     10.95
   30.1391     44.43     43.69    -25.08     10.95
   30.1493     44.42     43.61    -25.01     10.96
   30.1594     44.95     43.53    -24.40     10.96
   30.1696     43.84     43.45    -25.43     10.96
   30.1798     43.95     43.37    -25.24     10.96
   30.1899     44.90     43.30    -24.22     10.96
   30.2001     43.88     43.22    -25.16     10.96
   30.2103     43.59     43.14    -25.37     10.96
   30.2204     43.62     43.07    -25.27     10.96
   30.2306     43.49     42.99    -25.32     10.96
   30.2408     43.25     42.91    -25.48     10.96
   30.2509     43.62     42.84    -25.04     10.96
   30.2611     43.41     42.76    -25.17     10.96
   30.2712     43.06     42.68    -25.44     10.96
   30.2814     43.79     42.61    -24.64     10.96
   30.2916     42.69     42.53    -25.66     10.96
   30.3017     42.85     42.45    -25.42     10.96
   30.3119     43.11     42.38    -25.09     10.96
   30.3221     42.18     42.30    -25.94     10.96
   30.3322     42.52     42.23    -25.53     10.96
   30.3424     42.81     42.15    -25.16     10.96
   30.3526     42.32     42.07    -25.57     10.96
   30.3627     41.05     42.00    -26.77     10.96
   30.3729     42.47     41.92    -25.27     10.96
   30.3831     43.21     41.84    -24.45     10.96
   30.3932     42.09     41.77    -25.50     10.96
   30.4034     42.67     41.69    -24.84     10.96
   30.4135     41.36     41.62    -26.08     10.96
   30.4237     41.84     41.54    -25.52     10.96
   30.4339     42.20     41.46    -25.08     10.96
   30.4440     41.06     41.39    -26.15     10.96
   30.4542     42.72     41.31    -24.41     10.96
   30.4644     41.40     41.24    -25.66     10.96
   30.4745     41.19     41.16    -25.79     10.97
   30.4847     41.02     41.09    -25.89     10.97
   30.4949     40.62     41.01    -26.21     10.97
   30.5050     40.74     40.93    -26.01     10.97
   30.5152     41.65     40.86    -25.03     10.97
   30.5254     41.11     40.78    -25.49     10.97
   30.5355     40.70     40.71    -25.83     10.97
   30.5457     41.80     40.63    -24.65     10.97
   30.5559     41.07     40.56    -25.31     10.97
   30.5660     40.39     40.48    -25.91     10.97
   30.5762     40.51     40.41    -25.72     10.97
   30.5863     39.78     40.34    -26.38     10.97
   30.5965     40.05     40.26    -26.03     10.97
   30.6067     39.72     40.19    -26.29     10.97
   30.6168     40.46     40.11    -25.47     10.97
   30.6270     39.75     40.04    -26.11     10.97
   30.6372     40.62     39.96    -25.16     10.97
   30.6473     39.93     39.89    -25.78     10.97
   30.6575     39.10     39.82    -26.54     10.97
   30.6677     39.60     39.74    -25.96     10.97
   30.6778     39.20     39.67    -26.29     10.97
   30.6880     39.01     39.60    -26.41     10.97
   30.6982     40.29     39.53    -25.06     10.97
   30.7083     39.68     39.46    -25.60     10.97
   30.7185     38.83     39.38    -26.37     10.97
   30.7286     38.81     39.31    -26.32     10.97
   30.7388     39.03     39.24    -26.03     10.97
   30.7490     38.37     39.17    -26.62     10.97
   30.7591     37.74     39.10    -27.18     10.97
   30.7693     38.59     39.03    -26.26     10.97
   30.7795     37.74     38.96    -27.04     10.97
   30.7896     38.41     38.89    -26.30     10.98
   30.7998     38.70     38.82    -25.94     10.98
   30.8100     37.20     38.75    -27.37     10.98
   30.8201     37.99     38.68    -26.51     10.98
   30.8303     37.84     38.61    -26.59     10.98
   30.8405     36.71     38.54    -27.65     10.98
   30.8506     37.87     38.48    -26.43     10.98
   30.8608     37.99     38.41    -26.24     10.98
   30.8710     36.92     38.34    -27.24     10.98
   30.8811     37.59     38.28    -26.51     10.98
   30.8913     38.12     38.21    -25.91     10.98
   30.9014     37.12     38.14    -26.84     10.98
   30.9116     37.64     38.08    -26.26     10.98
   30.9218     37.57     38.01    -26.26     10.98
   30.9319     37.41     37.95    -26.36     10.98
   30.9421     37.31     37.88    -26.39     10.98
   30.9523     38.23     37.82    -25.41     10.98
   30.9624     36.10     37.76    -27.48     10.98
   30.9726     36.95     37.69    -26.56     10.98
   30.9828     37.86     37.63    -25.59     10.98
   30.9929     36.36     37.57    -27.03     10.98
   31.0031     37.20     37.51    -26.13     10.98
   31.0133     37.21     37.44    -26.05     10.98
   31.0234     36.33     37.38    -26.87     10.98
   31.0336     36.15     37.32    -26.99     10.98
   31.0437     36.75     37.26    -26.33     10.98
   31.0539     36.13     37.20    -26.89     10.98
   31.0641     36.02     37.14    -26.94     10.98
   31.0742     36.16     37.08    -26.74     10.98
   31.0844     36.27     37.03    -26.58     10.98
   31.0946     35.99     36.97    -26.80     10.98
   31.1047     36.56     36.91    -26.17     10.99
   31.1149     35.86     36.85    -26.81     10.99
   31.1251     35.64     36.80    -26.98     10.99
   31.1352     36.18     36.74    -26.38     10.99
   31.1454     35.31     36.68    -27.19     10.99
   31.1556     35.56     36.63    -26.89     10.99
   31.1657     35.72     36.57    -26.67     10.99
   31.1759     36.19     36.52    -26.15     10.99
   31.1860     35.57     36.47    -26.72     10.99
   31.1962     35.48     36.41    -26.75     10.99
   31.2064     35.70     36.36    -26.48     10.99
   31.2165     35.81     36.31    -26.32     10.99
   31.2267     34.82     36.26    -27.26     10.99
   31.2369     34.95     36.20    -27.07     10.99
   31.2470     34.46     36.15    -27.51     10.99
   31.2572     35.66     36.10    -26.26     10.99
   31.2674     35.44     36.05    -26.43     10.99
   31.2775     35.44     36.00    -26.38     10.99
   31.2877     35.25     35.95    -26.52     10.99
   31.2979     34.88     35.90    -26.84     10.99
   31.3080     34.48     35.86    -27.20     10.99
   31.3182     35.66     35.81    -25.97     10.99
   31.3284     35.21     35.76    -26.37     10.99
   31.3385     34.33     35.71    -27.20     10.99
   31.3487     36.27     35.67    -25.22     10.99
   31.3588     34.63     35.62    -26.81     10.99
   31.3690     34.63     35.58    -26.77     10.99
   31.3792     35.49     35.53    -25.86     10.99
   31.3893     34.64     35.49    -26.67     10.99
   31.3995     34.38     35.44    -26.88     10.99
   31.4097     35.00     35.40    -26.22     10.99
   31.4198     33.93     35.35    -27.24     11.00
   31.4300     34.60     35.31    -26.53     11.00
   31.4402     35.22     35.27    -25.87     11.00
   31.4503     34.44     35.23    -26.61     11.00
   31.4605     34.60     35.18    -26.40     11.00
   31.4707     34.13     35.14    -26.83     11.00
   31.4808     34.04     35.10    -26.88     11.00
   31.4910     34.23     35.06    -26.65     11.00
   31.5011     34.62     35.02    -26.22     11.00
   31.5113     34.29     34.98    -26.51     11.00
   31.5215     34.70     34.94    -26.06     11.00
   31.5316     34.51     34.91    -26.22     11.00
   31.5418     33.85     34.87    -26.84     11.00
   31.5520     33.76     34.83    -26.89     11.00
   31.5621     34.66     34.79    -25.95     11.00
   31.5723     33.58     34.76    -27.00     11.00
   31.5825     33.72     34.72    -26.82     11.00
   31.5926     34.40     34.68    -26.10     11.00
   31.6028     34.19     34.65    -26.28     11.00
   31.6130     33.77     34.61    -26.66     11.00
   31.6231     33.46     34.58    -26.94     11.00
   31.6333     34.04     34.55    -26.33     11.00
   31.6435     33.36     34.51    -26.97     11.00
   31.6536     33.74     34.48    -26.56     11.00
   31.6638     33.92     34.45    -26.35     11.00
   31.6739     33.72     34.41    -26.51     11.00
   31.6841     33.57     34.38    -26.63     11.00
   31.6943     32.99     34.35    -27.18     11.00
   31.7044     33.62     34.32    -26.52     11.00
   31.7146     34.41     34.29    -25.70     11.00
   31.7248     32.97     34.26    -27.11     11.00
   31.7349     33.84     34.23    -26.21     11.00
   31.7451     33.93     34.20    -26.09     11.01
   31.7553     33.13     34.17    -26.86     11.01
   31.7654     34.02     34.14    -25.94     11.01
   31.7756     34.21     34.11    -25.72     11.01
   31.7858     34.04     34.08    -25.86     11.01
   31.7959     34.10     34.06    -25.78     11.01
   31.8061     34.26     34.03    -25.59     11.01
   31.8162     33.29     34.00    -26.53     11.01
   31.8264     33.88     33.98    -25.92     11.01
   31.8366     34.25     33.95    -25.52     11.01
   31.8467     34.27     33.93    -25.48     11.01
   31.8569     33.60     33.90    -26.12     11.01
   31.8671     33.65     33.88    -26.05     11.01
   31.8772     33.20     33.85    -26.47     11.01
   31.8874     32.49     33.83    -27.16     11.01
   31.8976     33.53     33.81    -26.10     11.01
   31.9077     32.85     33.78    -26.75     11.01
   31.9179     32.89     33.76    -26.69     11.01
   31.9281     33.07     33.74    -26.49     11.01
   31.9382     33.25     33.72    -26.29     11.01
   31.9484     33.21     33.70    -26.31     11.01
   31.9586     33.43     33.67    -26.06     11.01
   31.9687     33.35     33.65    -26.12     11.01
   31.9789     32.91     33.63    -26.54     11.01
   31.9890     33.85     33.61    -25.58     11.01
   31.9992     33.15     33.60    -26.27     11.01
   32.0094     32.95     33.58    -26.45     11.01
   32.0195     33.04     33.56    -26.34     11.01
   32.0297     33.60     33.54    -25.76     11.01
   32.0399     32.67     33.52    -26.67     11.01
   32.0500     33.45     33.51    -25.88     11.01
   32.0602     33.28     33.49    -26.03     11.02
   32.0704     33.61     33.47    -25.68     11.02
   32.0805     33.52     33.46    -25.76     11.02
   32.0907     32.59     33.44    -26.67     11.02
   32.1009     32.98     33.42    -26.26     11.02
   32.1110     33.64     33.41    -25.59     11.02
   32.1212     32.79     33.40    -26.43     11.02
   32.1313     33.68     33.38    -25.52     11.02
   32.1415     33.87     33.37    -25.32     11.02
   32.1517     33.34     33.35    -25.83     11.02
   32.1618     33.63     33.34    -25.53     11.02
   32.1720     32.88     33.33    -26.27     11.02
   32.1822     32.77     33.32    -26.37     11.02
   32.1923     32.80     33.31    -26.33     11.02
   32.2025     32.78     33.29    -26.33     11.02
   32.2127     33.31     33.28    -25.79     11.02
   32.2228     32.69     33.27    -26.40     11.02
   32.2330     32.16     33.26    -26.92     11.02
   32.2432     32.51     33.25    -26.56     11.02
   32.2533     32.57     33.24    -26.49     11.02
   32.2635     33.66     33.23    -25.39     11.02
   32.2737     32.93     33.22    -26.11     11.02
   32.2838     33.01     33.22    -26.03     11.02
   32.2940     33.51     33.21    -25.52     11.02
   32.3041     32.75     33.20    -26.27     11.02
   32.3143     33.09     33.19    -25.92     11.02
   32.3245     32.90     33.19    -26.11     11.02
   32.3346     32.68     33.18    -26.32     11.02
   32.3448     32.36     33.17    -26.63     11.02
   32.3550     32.30     33.17    -26.69     11.02
   32.3651     32.53     33.16    -26.45     11.02
   32.3753     33.42     33.16    -25.56     11.03
   32.3855     33.07     33.15    -25.90     11.03
   32.3956     32.62     33.15    -26.35     11.03
   32.4058     32.66     33.14    -26.30     11.03
   32.4160     32.64     33.14    -26.32     11.03
   32.4261     33.38     33.13    -25.57     11.03
   32.4363     32.63     33.13    -26.32     11.03
   32.4464     33.18     33.13    -25.77     11.03
   32.4566     31.27     33.13    -27.68     11.03
   32.4668     33.07     33.12    -25.87     11.03
   32.4769     32.82     33.12    -26.12     11.03
   32.4871     32.48     33.12    -26.46     11.03
   32.4973     32.76     33.12    -26.18     11.03
   32.5074     33.23     33.12    -25.71     11.03
   32.5176     32.89     33.12    -26.05     11.03
   32.5278     32.97     33.12    -25.97     11.03
   32.5379     33.98     33.11    -24.95     11.03
   32.5481     32.12     33.11    -26.81     11.03
   32.5583     33.07     33.11    -25.86     11.03
   32.5684     32.98     33.12    -25.96     11.03
   32.5786     31.98     33.12    -26.96     11.03
   32.5888     32.95     33.12    -25.99     11.03
   32.5989     32.73     33.12    -26.21     11.03
   32.6091     32.10     33.12    -26.84     11.03
   32.6192     32.56     33.12    -26.38     11.03
   32.6294     33.19     33.12    -25.75     11.03
   32.6396     32.88     33.12    -26.06     11.03
   32.6497     32.63     33.13    -26.32     11.03
   32.6599     33.93     33.13    -25.02     11.03
   32.6701     31.90     33.13    -27.05     11.03
   32.6802     32.55     33.13    -26.40     11.03
   32.6904     32.46     33.13    -26.49     11.04
   32.7006     32.73     33.14    -26.23     11.04
   32.7107     34.01     33.14    -24.95     11.04
   32.7209     32.34     33.14    -26.62     11.04
   32.7311     32.43     33.15    -26.54     11.04
   32.7412     32.93     33.15    -26.04     11.04
   32.7514     33.72     33.15    -25.25     11.04
   32.7615     33.03     33.15    -25.94     11.04
   32.7717     32.18     33.16    -26.80     11.04
   32.7819     32.99     33.16    -25.99     11.04
   32.7920     32.20     33.16    -26.78     11.04
   32.8022     32.53     33.17    -26.46     11.04
   32.8124     33.34     33.17    -25.65     11.04
   32.8225     33.05     33.17    -25.94     11.04
   32.8327     33.55     33.18    -25.45     11.04
   32.8429     33.05     33.18    -25.95     11.04
   32.8530     33.11     33.18    -25.89     11.04
   32.8632     33.30     33.19    -25.71     11.04
   32.8734     32.50     33.19    -26.51     11.04
   32.8835     33.25     33.19    -25.76     11.04
   32.8937     32.38     33.19    -26.63     11.04
   32.9039     32.60     33.20    -26.42     11.04
   32.9140     33.55     33.20    -25.47     11.04
   32.9242     32.27     33.20    -26.75     11.04
   32.9343     33.17     33.20    -25.85     11.04
   32.9445     32.62     33.20    -26.40     11.04
   32.9547     33.36     33.20    -25.66     11.04
   32.9648     31.99     33.20    -27.03     11.04
   32.9750     32.67     33.21    -26.36     11.04
   32.9852     32.47     33.21    -26.56     11.04
   32.9953     32.79     33.21    -26.24     11.04
   33.0055     33.07     33.21    -25.96     11.04
   33.0157     33.46     33.20    -25.56     11.05
   33.0258     32.91     33.20    -26.11     11.05
   33.0360     32.96     33.20    -26.06     11.05
   33.0462     32.27     33.20    -26.75     11.05
   33.0563     33.10     33.20    -25.92     11.05
   33.0665     33.17     33.20    -25.85     11.05
   33.0766     33.04     33.19    -25.97     11.05
   33.0868     33.26     33.19    -25.75     11.05
   33.0970     33.53     33.19    -25.48     11.05
   33.1071     32.62     33.18    -26.38     11.05
   33.1173     33.22     33.18    -25.78     11.05
   33.1275     32.87     33.17    -26.12     11.05
   33.1376     33.02     33.16    -25.96     11.05
   33.1478     33.65     33.16    -25.33     11.05
   33.1580     32.85     33.15    -26.12     11.05
   33.1681     33.22     33.14    -25.74     11.05
   33.1783     32.84     33.13    -26.11     11.05
   33.1885     33.34     33.12    -25.60     11.05
   33.1986     33.73     33.12    -25.21     11.05
   33.2088     32.52     33.10    -26.40     11.05
   33.2189     32.98     33.09    -25.93     11.05
   33.2291     33.71     33.08    -25.19     11.05
   33.2393     33.78     33.07    -25.11     11.05
   33.2494     33.00     33.06    -25.88     11.05
   33.2596     33.21     33.04    -25.65     11.05
   33.2698     34.27     33.03    -24.58     11.05
   33.2799     34.55     33.01    -24.28     11.05
   33.2901     33.57     33.00    -25.25     11.05
   33.3003     33.07     32.98    -25.73     11.05
   33.3104     32.55     32.96    -26.23     11.05
   33.3206     33.26     32.95    -25.51     11.05
   33.3308     33.57     32.93    -25.18     11.06
   33.3409     33.51     32.91    -25.22     11.06
   33.3511     33.63     32.89    -25.08     11.06
   33.3613     34.39     32.87    -24.30     11.06
   33.3714     33.29     32.85    -25.38     11.06
   33.3816     34.16     32.82    -24.48     11.06
   33.3917     33.41     32.80    -25.21     11.06
   33.4019     33.09     32.78    -25.51     11.06
   33.4121     33.40     32.75    -25.17     11.06
   33.4222     34.46     32.73    -24.09     11.06
   33.4324     34.26     32.70    -24.26     11.06
   33.4426     34.46     32.67    -24.03     11.06
   33.4527     33.99     32.64    -24.47     11.06
   33.4629     33.71     32.62    -24.73     11.06
   33.4731     33.66     32.59    -24.75     11.06
   33.4832     33.64     32.56    -24.74     11.06
   33.4934     33.43     32.53    -24.92     11.06
   33.5036     33.72     32.49    -24.59     11.06
   33.5137     33.90     32.46    -24.38     11.06
   33.5239     32.99     32.43    -25.26     11.06
   33.5340     33.46     32.40    -24.76     11.06
   33.5442     33.45     32.36    -24.73     11.06
   33.5544     33.12     32.33    -25.03     11.06
   33.5645     33.38     32.29    -24.73     11.06
   33.5747     33.34     32.26    -24.74     11.06
   33.5849     33.21     32.22    -24.83     11.06
   33.5950     33.50     32.18    -24.50     11.06
   33.6052     33.05     32.14    -24.91     11.06
   33.6154     34.16     32.10    -23.76     11.06
   33.6255     33.22     32.07    -24.67     11.06
   33.6357     33.30     32.03    -24.55     11.06
   33.6459     33.23     31.98    -24.57     11.07
   33.6560     33.16     31.94    -24.60     11.07
   33.6662     32.47     31.90    -25.25     11.07
   33.6764     33.32     31.86    -24.36     11.07
   33.6865     33.25     31.82    -24.39     11.07
   33.6967     32.96     31.77    -24.63     11.07
   33.7068     32.80     31.73    -24.75     11.07
   33.7170     32.71     31.69    -24.80     11.07
   33.7272     31.27     31.64    -26.19     11.07
   33.7373     32.19     31.60    -25.23     11.07
   33.7475     32.80     31.55    -24.57     11.07
   33.7577     32.25     31.51    -25.08     11.07
   33.7678     32.11     31.46    -25.17     11.07
   33.7780     32.65     31.42    -24.59     11.07
   33.7882     31.13     31.37    -26.06     11.07
   33.7983     31.60     31.32    -25.54     11.07
   33.8085     31.68     31.27    -25.41     11.07
   33.8187     31.32     31.23    -25.73     11.07
   33.8288     31.65     31.18    -25.35     11.07
   33.8390     31.35     31.13    -25.60     11.07
   33.8491     31.71     31.08    -25.19     11.07
   33.8593     30.87     31.03    -25.98     11.07
   33.8695     31.31     30.98    -25.49     11.07
   33.8796     30.98     30.94    -25.78     11.07
   33.8898     31.50     30.89    -25.21     11.07
   33.9000     31.11     30.84    -25.55     11.07
   33.9101     30.70     30.79    -25.91     11.07
   33.9203     30.71     30.74    -25.85     11.07
   33.9305     30.79     30.69    -25.72     11.07
   33.9406     30.40     30.64    -26.06     11.07
   33.9508     30.71     30.59    -25.70     11.07
   33.9610     30.79     30.54    -25.57     11.08
   33.9711     31.22     30.49    -25.09     11.08
   33.9813     30.89     30.44    -25.37     11.08
   33.9915     30.09     30.39    -26.12     11.08
   34.0016     30.11     30.34    -26.05     11.08
   34.0118     31.01     30.29    -25.10     11.08
   34.0219     29.38     30.24    -26.68     11.08
   34.0321     29.74     30.19    -26.27     11.08
   34.0423     30.13     30.14    -25.83     11.08
   34.0524     30.76     30.09    -25.15     11.08
   34.0626     30.47     30.03    -25.38     11.08
   34.0728     29.54     29.98    -26.26     11.08
   34.0829     30.14     29.93    -25.61     11.08
   34.0931     28.92     29.88    -26.78     11.08
   34.1033     28.71     29.83    -26.94     11.08
   34.1134     29.35     29.78    -26.25     11.08
   34.1236     28.37     29.73    -27.18     11.08
   34.1338     28.68     29.68    -26.82     11.08
   34.1439     29.34     29.64    -26.12     11.08
   34.1541     29.06     29.59    -26.35     11.08
   34.1642     28.98     29.54    -26.38     11.08
   34.1744     28.74     29.49    -26.57     11.08
   34.1846     29.10     29.44    -26.16     11.08
   34.1947     28.64     29.39    -26.57     11.08
   34.2049     28.74     29.34    -26.42     11.08
   34.2151     28.04     29.29    -27.07     11.08
   34.2252     28.53     29.24    -26.53     11.08
   34.2354     28.34     29.19    -26.67     11.08
   34.2456     28.65     29.15    -26.32     11.08
   34.2557     28.43     29.10    -26.49     11.08
   34.2659     28.32     29.05    -26.55     11.08
   34.2761     28.42     29.00    -26.40     11.09
   34.2862     28.66     28.96    -26.12     11.09
   34.2964     28.60     28.91    -26.13     11.09
   34.3066     27.18     28.86    -27.50     11.09
   34.3167     28.55     28.81    -26.08     11.09
   34.3269     27.70     28.77    -26.89     11.09
   34.3370     27.55     28.72    -26.99     11.09
   34.3472     28.38     28.68    -26.12     11.09
   34.3574     27.87     28.63    -26.58     11.09
   34.3675     27.40     28.58    -27.00     11.09
   34.3777     28.57     28.54    -25.79     11.09
   34.3879     28.01     28.49    -26.30     11.09
   34.3980     27.98     28.45    -26.29     11.09
   34.4082     27.85     28.40    -26.37     11.09
   34.4184     27.34     28.36    -26.84     11.09
   34.4285     27.64     28.32    -26.50     11.09
   34.4387     27.86     28.27    -26.23     11.09
   34.4489     28.03     28.23    -26.02     11.09
   34.4590     27.13     28.18    -26.87     11.09
   34.4692     27.30     28.14    -26.66     11.09
   34.4793     27.61     28.10    -26.31     11.09
   34.4895     27.37     28.05    -26.50     11.09
   34.4997     27.35     28.01    -26.48     11.09
   34.5098     28.39     27.97    -25.40     11.09
   34.5200     27.17     27.93    -26.58     11.09
   34.5302     27.37     27.89    -26.34     11.09
   34.5403     27.92     27.84    -25.74     11.09
   34.5505     26.79     27.80    -26.83     11.09
   34.5607     26.99     27.76    -26.59     11.09
   34.5708     27.16     27.72    -26.38     11.09
   34.5810     26.70     27.68    -26.80     11.09
   34.5912     27.37     27.64    -26.09     11.09
   34.6013     27.09     27.60    -26.33     11.10
   34.6115     27.34     27.56    -26.04     11.10
   34.6217     26.74     27.52    -26.60     11.10
   34.6318     27.08     27.48    -26.22     11.10
   34.6420     26.95     27.44    -26.31     11.10
   34.6521     26.92     27.40    -26.30     11.10
   34.6623     26.76     27.36    -26.42     11.10
   34.6725     27.12     27.33    -26.03     11.10
   34.6826     26.52     27.29    -26.59     11.10
   34.6928     26.41     27.25    -26.66     11.10
   34.7030     26.59     27.21    -26.44     11.10
   34.7131     27.16     27.17    -25.83     11.10
   34.7233     26.41     27.14    -26.55     11.10
   34.7335     26.92     27.10    -26.00     11.10
   34.7436     27.10     27.06    -25.78     11.10
   34.7538     26.55     27.03    -26.30     11.10
   34.7640     27.23     26.99    -25.58     11.10
   34.7741     27.12     26.95    -25.65     11.10
   34.7843     26.30     26.92    -26.44     11.10
   34.7944     26.66     26.88    -26.04     11.10
   34.8046     26.65     26.85    -26.02     11.10
   34.8148     26.02     26.81    -26.61     11.10
   34.8249     26.55     26.78    -26.05     11.10
   34.8351     26.59     26.74    -25.97     11.10
   34.8453     26.73     26.71    -25.80     11.10
   34.8554     26.76     26.67    -25.73     11.10
   34.8656     26.06     26.64    -26.40     11.10
   34.8758     26.86     26.61    -25.57     11.10
   34.8859     26.95     26.57    -25.44     11.10
   34.8961     26.45     26.54    -25.91     11.10
   34.9063     25.93     26.51    -26.40     11.10
   34.9164     26.77     26.47    -25.52     11.11
   34.9266     26.76     26.44    -25.50     11.11
   34.9367     25.80     26.41    -26.43     11.11
   34.9469     25.78     26.37    -26.41     11.11
   34.9571     26.13     26.34    -26.03     11.11
   34.9672     26.61     26.31    -25.52     11.11
   34.9774     26.34     26.28    -25.76     11.11
   34.9876     25.77     26.25    -26.30     11.11
   34.9977     26.62     26.21    -25.41     11.11
   35.0079     25.79     26.18    -26.21     11.11
   35.0181     26.32     26.15    -25.65     11.11
   35.0282     25.61     26.12    -26.33     11.11
   35.0384     26.22     26.09    -25.69     11.11
   35.0486     25.93     26.06    -25.95     11.11
   35.0587     25.88     26.03    -25.97     11.11
   35.0689     25.62     26.00    -26.20     11.11
   35.0791     26.13     25.97    -25.66     11.11
   35.0892     25.95     25.94    -25.81     11.11
   35.0994     25.99     25.91    -25.74     11.11
   35.1095     26.28     25.88    -25.42     11.11
   35.1197     26.12     25.85    -25.55     11.11
   35.1299     25.72     25.82    -25.92     11.11
   35.1400     26.61     25.79    -25.00     11.11
   35.1502     25.87     25.76    -25.71     11.11
   35.1604     25.74     25.74    -25.82     11.11
   35.1705     26.41     25.71    -25.12     11.11
   35.1807     26.05     25.68    -25.45     11.11
   35.1909     25.80     25.65    -25.67     11.11
   35.2010     26.32     25.62    -25.12     11.11
   35.2112     25.75     25.60    -25.67     11.11
   35.2214     25.52     25.57    -25.87     11.11
   35.2315     25.98     25.54    -25.38     11.12
   35.2417     25.98     25.51    -25.35     11.12
   35.2518     25.74     25.49    -25.57     11.12
   35.2620     24.95     25.46    -26.33     11.12
   35.2722     25.77     25.43    -25.48     11.12
   35.2823     26.04     25.41    -25.19     11.12
   35.2925     25.77     25.38    -25.43     11.12
   35.3027     26.18     25.35    -24.99     11.12
   35.3128     25.76     25.33    -25.39     11.12
   35.3230     25.88     25.30    -25.24     11.12
   35.3332     25.37     25.27    -25.72     11.12
   35.3433     25.70     25.25    -25.37     11.12
   35.3535     26.54     25.22    -24.50     11.12
   35.3637     25.18     25.20    -25.84     11.12
   35.3738     25.96     25.17    -25.03     11.12
   35.3840     25.80     25.15    -25.17     11.12
   35.3942     25.60     25.12    -25.34     11.12
   35.4043     25.62     25.10    -25.30     11.12
   35.4145     25.46     25.07    -25.43     11.12
   35.4246     24.81     25.05    -26.06     11.12
   35.4348     25.76     25.02    -25.08     11.12
   35.4450     25.59     25.00    -25.23     11.12
   35.4551     24.81     24.97    -25.98     11.12
   35.4653     25.80     24.95    -24.97     11.12
   35.4755     25.51     24.92    -25.23     11.12
   35.4856     26.17     24.90    -24.55     11.12
   35.4958     25.51     24.88    -25.19     11.12
   35.5060     25.93     24.85    -24.74     11.12
   35.5161     25.31     24.83    -25.34     11.12
   35.5263     25.48     24.80    -25.14     11.12
   35.5365     25.60     24.78    -25.00     11.12
   35.5466     25.69     24.76    -24.89     11.13
   35.5568     25.52     24.73    -25.03     11.13
   35.5669     25.23     24.71    -25.30     11.13
   35.5771     24.96     24.69    -25.55     11.13
   35.5873     25.63     24.67    -24.86     11.13
   35.5974     25.19     24.64    -25.27     11.13
   35.6076     25.70     24.62    -24.74     11.13
   35.6178     25.72     24.60    -24.70     11.13
   35.6279     25.51     24.58    -24.89     11.13
   35.6381     25.20     24.55    -25.17     11.13
   35.6483     25.55     24.53    -24.80     11.13
   35.6584     25.50     24.51    -24.83     11.13
   35.6686     25.27     24.49    -25.04     11.13
   35.6788     25.30     24.46    -24.98     11.13
   35.6889     25.37     24.44    -24.89     11.13
   35.6991     25.16     24.42    -25.08     11.13
   35.7093     25.03     24.40    -25.19     11.13
   35.7194     24.99     24.38    -25.21     11.13
   35.7296     25.44     24.36    -24.74     11.13
   35.7397     24.80     24.33    -25.35     11.13
   35.7499     25.80     24.31    -24.33     11.13
   35.7601     25.49     24.29    -24.62     11.13
   35.7702     24.59     24.27    -25.50     11.13
   35.7804     24.98     24.25    -25.09     11.13
   35.7906     24.70     24.23    -25.35     11.13
   35.8007     24.60     24.21    -25.43     11.13
   35.8109     25.27     24.19    -24.74     11.13
   35.8211     24.82     24.17    -25.17     11.13
   35.8312     24.96     24.15    -25.01     11.13
   35.8414     25.09     24.13    -24.86     11.13
   35.8516     25.88     24.11    -24.05     11.13
   35.8617     25.20     24.09    -24.71     11.13
   35.8719     24.64     24.07    -25.25     11.14
   35.8820     24.01     24.05    -25.86     11.14
   35.8922     24.83     24.03    -25.02     11.14
   35.9024     25.26     24.01    -24.57     11.14
   35.9125     25.08     23.99    -24.73     11.14
   35.9227     24.78     23.97    -25.01     11.14
   35.9329     25.53     23.95    -24.24     11.14
   35.9430     24.64     23.93    -25.11     11.14
   35.9532     25.14     23.91    -24.59     11.14
   35.9634     24.86     23.89    -24.85     11.14
   35.9735     25.08     23.87    -24.61     11.14
   35.9837     24.96     23.85    -24.71     11.14
   35.9939     24.73     23.83    -24.92     11.14
   36.0040     25.14     23.81    -24.49     11.14
   36.0142     25.00     23.79    -24.61     11.14
