 => TITLE: 
 => Data file name: C:\Users\stefano\Nextcloud2\uni\master-thesis\XRD\data\G310\G310--5-40-0.01-1000ms.xy
 => Instrm        :    1
 => Lambda(1&2)   :   1.54060  1.54060
 => Numb.of.points:      2951
 => Numb.of.peaks :         7
    2Theta     Yobs     Ycalc  Yobs-Ycal    Backg    Bragg     Posr  Intensity   FWHM    Eta
    6.0086     23.41     24.60    -21.56     20.00   18.6460      0.77     121.04  0.8006  0.6083
    6.0187     23.38     24.61    -21.60     20.00   20.5819      0.77       9.23  0.5104  0.6083
    6.0289     23.71     24.62    -21.27     20.00   22.4805      0.77      81.60  1.1019  0.6083
    6.0391     22.91     24.62    -22.08     20.00   28.4603      0.77      59.89  1.8437  0.6083
    6.0492     23.52     24.63    -21.48     20.00   30.0386      0.77      27.46  2.5734  0.6083
    6.0594     23.26     24.64    -21.74     20.00   33.3803      0.77      18.16  2.5734  0.6083
    6.0696     23.39     24.64    -21.62     20.00   19.6782      0.77    1106.95  8.4797  0.6083
    6.0797     24.06     24.65    -20.96     20.00
    6.0899     22.59     24.66    -22.43     20.00
    6.1001     23.09     24.66    -21.94     20.00
    6.1102     23.97     24.67    -21.07     20.00
    6.1204     23.44     24.68    -21.60     20.00
    6.1306     22.95     24.68    -22.10     20.00
    6.1407     22.98     24.69    -22.08     20.00
    6.1509     22.83     24.70    -22.23     20.00
    6.1611     23.12     24.70    -21.95     20.00
    6.1712     23.23     24.71    -21.85     20.00
    6.1814     21.97     24.72    -23.11     20.00
    6.1915     22.55     24.73    -22.54     20.00
    6.2017     22.80     24.73    -22.30     20.00
    6.2119     22.98     24.74    -22.13     20.00
    6.2220     23.05     24.75    -22.06     20.00
    6.2322     22.66     24.75    -22.46     20.00
    6.2424     22.80     24.76    -22.33     20.00
    6.2525     22.96     24.77    -22.17     20.00
    6.2627     21.90     24.77    -23.24     20.00
    6.2729     22.97     24.78    -22.18     20.00
    6.2830     22.52     24.79    -22.63     20.00
    6.2932     22.06     24.79    -23.10     20.00
    6.3034     22.94     24.80    -22.23     20.00
    6.3135     23.06     24.81    -22.12     20.00
    6.3237     22.60     24.82    -22.58     20.00
    6.3338     23.23     24.82    -21.96     20.00
    6.3440     23.20     24.83    -22.00     20.00
    6.3542     22.68     24.84    -22.52     20.00
    6.3643     22.33     24.84    -22.88     20.00
    6.3745     22.52     24.85    -22.70     20.00
    6.3847     22.83     24.86    -22.40     20.00
    6.3948     22.46     24.87    -22.77     20.00
    6.4050     22.43     24.87    -22.81     20.00
    6.4152     22.26     24.88    -22.99     20.00
    6.4253     22.84     24.89    -22.41     20.00
    6.4355     23.18     24.90    -22.08     20.00
    6.4457     23.04     24.90    -22.23     20.00
    6.4558     22.97     24.91    -22.31     20.00
    6.4660     22.85     24.92    -22.43     20.00
    6.4762     22.09     24.92    -23.20     20.00
    6.4863     23.37     24.93    -21.93     20.00
    6.4965     22.78     24.94    -22.53     20.00
    6.5066     22.59     24.95    -22.72     20.00
    6.5168     23.12     24.95    -22.20     20.00
    6.5270     23.60     24.96    -21.73     20.00
    6.5371     22.55     24.97    -22.79     20.00
    6.5473     23.21     24.98    -22.13     20.00
    6.5575     23.10     24.98    -22.25     20.00
    6.5676     22.98     24.99    -22.38     20.00
    6.5778     22.90     25.00    -22.47     20.00
    6.5880     22.29     25.01    -23.08     20.00
    6.5981     23.10     25.01    -22.28     20.00
    6.6083     22.83     25.02    -22.56     20.00
    6.6185     23.07     25.03    -22.33     20.00
    6.6286     22.80     25.04    -22.60     20.00
    6.6388     23.32     25.05    -22.09     20.00
    6.6489     23.08     25.05    -22.34     20.00
    6.6591     23.39     25.06    -22.04     20.00
    6.6693     22.60     25.07    -22.83     20.00
    6.6794     22.49     25.08    -22.95     20.00
    6.6896     23.20     25.08    -22.25     20.00
    6.6998     23.37     25.09    -22.09     20.00
    6.7099     23.56     25.10    -21.91     20.00
    6.7201     22.63     25.11    -22.84     20.00
    6.7303     23.40     25.12    -22.08     20.00
    6.7404     23.77     25.12    -21.72     20.00
    6.7506     22.71     25.13    -22.79     20.00
    6.7608     22.82     25.14    -22.69     20.00
    6.7709     23.26     25.15    -22.25     20.00
    6.7811     23.49     25.16    -22.03     20.00
    6.7913     23.49     25.16    -22.04     20.00
    6.8014     22.79     25.17    -22.75     20.00
    6.8116     24.10     25.18    -21.45     20.00
    6.8217     23.68     25.19    -21.87     20.00
    6.8319     23.82     25.20    -21.74     20.00
    6.8421     24.09     25.20    -21.48     20.00
    6.8522     23.04     25.21    -22.54     20.00
    6.8624     24.07     25.22    -21.52     20.00
    6.8726     23.62     25.23    -21.97     20.00
    6.8827     23.85     25.24    -21.75     20.00
    6.8929     22.96     25.25    -22.65     20.00
    6.9031     23.93     25.25    -21.69     20.00
    6.9132     23.29     25.26    -22.34     20.00
    6.9234     23.31     25.27    -22.33     20.00
    6.9336     23.66     25.28    -21.98     20.00
    6.9437     23.13     25.29    -22.52     20.00
    6.9539     23.82     25.30    -21.84     20.00
    6.9640     23.60     25.30    -22.07     20.00
    6.9742     23.47     25.31    -22.21     20.00
    6.9844     23.91     25.32    -21.78     20.00
    6.9945     23.80     25.33    -21.89     20.00
    7.0047     23.83     25.34    -21.87     20.00
    7.0149     23.91     25.35    -21.80     20.00
    7.0250     23.80     25.35    -21.92     20.00
    7.0352     23.88     25.36    -21.85     20.00
    7.0454     23.15     25.37    -22.59     20.00
    7.0555     23.16     25.38    -22.59     20.00
    7.0657     23.77     25.39    -21.98     20.00
    7.0759     23.37     25.40    -22.39     20.00
    7.0860     23.87     25.41    -21.90     20.00
    7.0962     23.90     25.42    -21.88     20.00
    7.1064     24.19     25.42    -21.60     20.00
    7.1165     24.01     25.43    -21.79     20.00
    7.1267     23.70     25.44    -22.11     20.00
    7.1368     23.77     25.45    -22.05     20.00
    7.1470     23.07     25.46    -22.76     20.00
    7.1572     23.87     25.47    -21.96     20.00
    7.1673     24.43     25.48    -21.41     20.00
    7.1775     23.97     25.49    -21.88     20.00
    7.1877     23.99     25.49    -21.87     20.00
    7.1978     24.60     25.50    -21.27     20.00
    7.2080     25.09     25.51    -20.79     20.00
    7.2182     23.71     25.52    -22.18     20.00
    7.2283     24.26     25.53    -21.64     20.00
    7.2385     24.92     25.54    -20.99     20.00
    7.2487     23.74     25.55    -22.18     20.00
    7.2588     24.43     25.56    -21.49     20.00
    7.2690     24.70     25.57    -21.23     20.00
    7.2791     24.67     25.58    -21.27     20.00
    7.2893     24.82     25.59    -21.13     20.00
    7.2995     24.32     25.60    -21.64     20.00
    7.3096     24.57     25.60    -21.40     20.00
    7.3198     25.20     25.61    -20.78     20.00
    7.3300     24.21     25.62    -21.78     20.00
    7.3401     24.82     25.63    -21.18     20.00
    7.3503     24.62     25.64    -21.39     20.00
    7.3605     24.15     25.65    -21.87     20.00
    7.3706     24.88     25.66    -21.15     20.00
    7.3808     24.13     25.67    -21.91     20.00
    7.3910     24.50     25.68    -21.55     20.00
    7.4011     24.93     25.69    -21.13     20.00
    7.4113     24.81     25.70    -21.26     20.00
    7.4215     24.20     25.71    -21.88     20.00
    7.4316     24.34     25.72    -21.74     20.00
    7.4418     24.81     25.73    -21.28     20.00
    7.4519     23.69     25.74    -22.41     20.00
    7.4621     24.62     25.75    -21.49     20.00
    7.4723     24.88     25.76    -21.24     20.00
    7.4824     24.59     25.77    -21.54     20.00
    7.4926     24.07     25.78    -22.07     20.00
    7.5028     24.96     25.79    -21.19     20.00
    7.5129     24.32     25.80    -21.84     20.00
    7.5231     24.70     25.81    -21.47     20.00
    7.5333     25.13     25.82    -21.05     20.00
    7.5434     24.74     25.83    -21.45     20.00
    7.5536     25.03     25.84    -21.17     20.00
    7.5638     24.65     25.85    -21.56     20.00
    7.5739     24.76     25.86    -21.46     20.00
    7.5841     24.87     25.87    -21.36     20.00
    7.5942     24.88     25.88    -21.36     20.00
    7.6044     24.53     25.89    -21.72     20.00
    7.6146     24.85     25.90    -21.41     20.00
    7.6247     24.38     25.91    -21.89     20.00
    7.6349     25.07     25.92    -21.21     20.00
    7.6451     24.79     25.93    -21.50     20.00
    7.6552     23.98     25.94    -22.32     20.00
    7.6654     25.15     25.95    -21.17     20.00
    7.6756     23.85     25.96    -22.48     20.00
    7.6857     24.82     25.97    -21.52     20.00
    7.6959     24.87     25.98    -21.48     20.00
    7.7061     24.85     25.99    -21.51     20.00
    7.7162     25.51     26.00    -20.86     20.00
    7.7264     25.40     26.01    -20.98     20.00
    7.7365     25.16     26.02    -21.23     20.00
    7.7467     25.15     26.03    -21.25     20.00
    7.7569     24.68     26.04    -21.73     20.00
    7.7670     25.18     26.06    -21.24     20.00
    7.7772     24.62     26.07    -21.81     20.00
    7.7874     25.32     26.08    -21.12     20.00
    7.7975     25.44     26.09    -21.01     20.00
    7.8077     24.76     26.10    -21.70     20.00
    7.8179     24.65     26.11    -21.83     20.00
    7.8280     24.94     26.12    -21.55     20.00
    7.8382     25.12     26.13    -21.38     20.00
    7.8484     25.16     26.14    -21.35     20.00
    7.8585     25.22     26.15    -21.30     20.00
    7.8687     25.51     26.16    -21.02     20.00
    7.8789     25.88     26.18    -20.66     20.00
    7.8890     26.40     26.19    -20.15     20.00
    7.8992     26.19     26.20    -20.37     20.00
    7.9093     25.54     26.21    -21.04     20.00
    7.9195     25.40     26.22    -21.19     20.00
    7.9297     25.61     26.23    -20.99     20.00
    7.9398     25.54     26.24    -21.07     20.00
    7.9500     25.12     26.25    -21.50     20.00
    7.9602     25.43     26.27    -21.20     20.00
    7.9703     25.22     26.28    -21.42     20.00
    7.9805     26.24     26.29    -20.41     20.00
    7.9907     25.29     26.30    -21.38     20.00
    8.0008     25.97     26.31    -20.71     20.00
    8.0110     26.90     26.32    -19.79     20.00
    8.0212     25.46     26.34    -21.24     20.00
    8.0313     26.38     26.35    -20.33     20.00
    8.0415     26.15     26.36    -20.57     20.00
    8.0516     26.21     26.37    -20.53     20.00
    8.0618     26.01     26.38    -20.74     20.00
    8.0720     25.98     26.39    -20.78     20.00
    8.0821     26.22     26.41    -20.55     20.00
    8.0923     25.68     26.42    -21.10     20.00
    8.1025     25.70     26.43    -21.10     20.00
    8.1126     26.26     26.44    -20.55     20.00
    8.1228     25.68     26.45    -21.14     20.00
    8.1330     25.96     26.47    -20.87     20.00
    8.1431     26.28     26.48    -20.56     20.00
    8.1533     26.02     26.49    -20.84     20.00
    8.1635     26.99     26.50    -19.88     20.00
    8.1736     25.79     26.52    -21.09     20.00
    8.1838     25.28     26.53    -21.61     20.00
    8.1940     26.04     26.54    -20.87     20.00
    8.2041     26.87     26.55    -20.05     20.00
    8.2143     26.49     26.56    -20.44     20.00
    8.2244     26.40     26.58    -20.54     20.00
    8.2346     26.64     26.59    -20.32     20.00
    8.2448     25.72     26.60    -21.25     20.00
    8.2549     26.01     26.62    -20.97     20.00
    8.2651     26.24     26.63    -20.75     20.00
    8.2753     26.19     26.64    -20.82     20.00
    8.2854     26.59     26.65    -20.43     20.00
    8.2956     26.67     26.67    -20.36     20.00
    8.3058     27.12     26.68    -19.93     20.00
    8.3159     26.46     26.69    -20.60     20.00
    8.3261     26.74     26.71    -20.33     20.00
    8.3363     26.87     26.72    -20.21     20.00
    8.3464     26.83     26.73    -20.27     20.00
    8.3566     26.98     26.74    -20.13     20.00
    8.3667     26.38     26.76    -20.74     20.00
    8.3769     25.79     26.77    -21.35     20.00
    8.3871     26.62     26.78    -20.53     20.00
    8.3972     26.86     26.80    -20.30     20.00
    8.4074     26.91     26.81    -20.27     20.00
    8.4176     26.58     26.82    -20.61     20.00
    8.4277     26.37     26.84    -20.83     20.00
    8.4379     27.51     26.85    -19.71     20.00
    8.4481     26.43     26.86    -20.80     20.00
    8.4582     27.18     26.88    -20.06     20.00
    8.4684     26.56     26.89    -20.70     20.00
    8.4786     26.68     26.91    -20.59     20.00
    8.4887     26.66     26.92    -20.62     20.00
    8.4989     26.77     26.93    -20.53     20.00
    8.5091     27.12     26.95    -20.19     20.00
    8.5192     26.45     26.96    -20.88     20.00
    8.5294     26.63     26.97    -20.71     20.00
    8.5395     27.21     26.99    -20.14     20.00
    8.5497     27.73     27.00    -19.64     20.00
    8.5599     27.14     27.02    -20.24     20.00
    8.5700     28.10     27.03    -19.30     20.00
    8.5802     26.55     27.04    -20.86     20.00
    8.5904     27.65     27.06    -19.77     20.00
    8.6005     27.16     27.07    -20.28     20.00
    8.6107     26.82     27.09    -20.63     20.00
    8.6209     27.58     27.10    -19.89     20.00
    8.6310     27.17     27.12    -20.31     20.00
    8.6412     27.74     27.13    -19.76     20.00
    8.6514     27.57     27.15    -19.94     20.00
    8.6615     28.10     27.16    -19.43     20.00
    8.6717     27.32     27.17    -20.22     20.00
    8.6818     27.27     27.19    -20.29     20.00
    8.6920     28.85     27.20    -18.72     20.00
    8.7022     26.64     27.22    -20.95     20.00
    8.7123     27.93     27.23    -19.67     20.00
    8.7225     26.86     27.25    -20.75     20.00
    8.7327     26.99     27.26    -20.64     20.00
    8.7428     27.79     27.28    -19.85     20.00
    8.7530     27.22     27.29    -20.44     20.00
    8.7632     27.71     27.31    -19.97     20.00
    8.7733     27.84     27.32    -19.85     20.00
    8.7835     27.80     27.34    -19.91     20.00
    8.7937     27.82     27.36    -19.90     20.00
    8.8038     27.41     27.37    -20.33     20.00
    8.8140     28.74     27.39    -19.01     20.00
    8.8242     27.54     27.40    -20.23     20.00
    8.8343     27.40     27.42    -20.38     20.00
    8.8445     27.59     27.43    -20.21     20.00
    8.8546     28.02     27.45    -19.79     20.00
    8.8648     28.02     27.46    -19.81     20.00
    8.8750     27.19     27.48    -20.66     20.00
    8.8851     27.88     27.50    -19.98     20.00
    8.8953     28.68     27.51    -19.20     20.00
    8.9055     28.37     27.53    -19.52     20.00
    8.9156     28.10     27.54    -19.81     20.00
    8.9258     28.09     27.56    -19.84     20.00
    8.9360     28.75     27.58    -19.19     20.00
    8.9461     27.77     27.59    -20.19     20.00
    8.9563     29.20     27.61    -18.77     20.00
    8.9665     27.27     27.63    -20.72     20.00
    8.9766     27.77     27.64    -20.24     20.00
    8.9868     27.84     27.66    -20.18     20.00
    8.9969     28.93     27.67    -19.11     20.00
    9.0071     28.23     27.69    -19.83     20.00
    9.0173     28.00     27.71    -20.07     20.00
    9.0274     27.93     27.72    -20.16     20.00
    9.0376     27.94     27.74    -20.17     20.00
    9.0478     29.01     27.76    -19.11     20.00
    9.0579     28.05     27.78    -20.09     20.00
    9.0681     28.27     27.79    -19.89     20.00
    9.0783     29.02     27.81    -19.16     20.00
    9.0884     29.48     27.83    -18.71     20.00
    9.0986     27.43     27.84    -20.78     20.00
    9.1088     28.46     27.86    -19.77     20.00
    9.1189     28.90     27.88    -19.34     20.00
    9.1291     28.48     27.90    -19.78     20.00
    9.1393     29.65     27.91    -18.63     20.00
    9.1494     28.20     27.93    -20.10     20.00
    9.1596     28.23     27.95    -20.08     20.00
    9.1697     28.34     27.97    -19.99     20.00
    9.1799     28.92     27.98    -19.43     20.00
    9.1901     28.48     28.00    -19.89     20.00
    9.2002     28.48     28.02    -19.91     20.00
    9.2104     29.36     28.04    -19.04     20.00
    9.2206     28.07     28.06    -20.35     20.00
    9.2307     28.34     28.07    -20.10     20.00
    9.2409     28.93     28.09    -19.53     20.00
    9.2511     28.60     28.11    -19.88     20.00
    9.2612     28.65     28.13    -19.84     20.00
    9.2714     29.21     28.15    -19.30     20.00
    9.2816     28.23     28.17    -20.30     20.00
    9.2917     29.84     28.18    -18.71     20.00
    9.3019     29.85     28.20    -18.72     20.00
    9.3120     28.75     28.22    -19.84     20.00
    9.3222     28.63     28.24    -19.98     20.00
    9.3324     29.16     28.26    -19.47     20.00
    9.3425     28.95     28.28    -19.69     20.00
    9.3527     28.45     28.30    -20.21     20.00
    9.3629     29.01     28.32    -19.67     20.00
    9.3730     28.91     28.34    -19.79     20.00
    9.3832     29.46     28.35    -19.26     20.00
    9.3934     29.40     28.37    -19.34     20.00
    9.4035     28.68     28.39    -20.08     20.00
    9.4137     30.32     28.41    -18.46     20.00
    9.4239     29.44     28.43    -19.36     20.00
    9.4340     30.14     28.45    -18.68     20.00
    9.4442     29.70     28.47    -19.14     20.00
    9.4544     29.45     28.49    -19.41     20.00
    9.4645     29.28     28.51    -19.60     20.00
    9.4747     30.35     28.53    -18.55     20.00
    9.4848     30.08     28.55    -18.84     20.00
    9.4950     30.18     28.57    -18.76     20.00
    9.5052     30.09     28.59    -18.87     20.00
    9.5153     29.12     28.61    -19.86     20.00
    9.5255     29.93     28.63    -19.07     20.00
    9.5357     29.98     28.65    -19.04     20.00
    9.5458     30.09     28.67    -18.95     20.00
    9.5560     29.16     28.69    -19.90     20.00
    9.5662     30.38     28.71    -18.70     20.00
    9.5763     29.51     28.73    -19.59     20.00
    9.5865     28.88     28.76    -20.24     20.00
    9.5967     29.83     28.78    -19.31     20.00
    9.6068     29.99     28.80    -19.17     20.00
    9.6170     29.50     28.82    -19.68     20.00
    9.6271     30.41     28.84    -18.80     20.00
    9.6373     29.91     28.86    -19.32     20.00
    9.6475     30.41     28.88    -18.84     20.00
    9.6576     30.59     28.90    -18.68     20.00
    9.6678     30.18     28.93    -19.11     20.00
    9.6780     29.55     28.95    -19.76     20.00
    9.6881     31.09     28.97    -18.24     20.00
    9.6983     31.33     28.99    -18.03     20.00
    9.7085     30.12     29.01    -19.26     20.00
    9.7186     30.34     29.03    -19.06     20.00
    9.7288     29.51     29.06    -19.91     20.00
    9.7390     29.48     29.08    -19.96     20.00
    9.7491     30.91     29.10    -18.56     20.00
    9.7593     30.34     29.12    -19.15     20.00
    9.7694     30.72     29.15    -18.79     20.00
    9.7796     31.30     29.17    -18.23     20.00
    9.7898     29.78     29.19    -19.78     20.00
    9.7999     29.75     29.21    -19.83     20.00
    9.8101     29.67     29.24    -19.93     20.00
    9.8203     30.73     29.26    -18.89     20.00
    9.8304     30.18     29.28    -19.47     20.00
    9.8406     30.41     29.30    -19.26     20.00
    9.8508     30.43     29.33    -19.26     20.00
    9.8609     29.96     29.35    -19.76     20.00
    9.8711     30.14     29.37    -19.60     20.00
    9.8813     29.70     29.40    -20.06     20.00
    9.8914     30.04     29.42    -19.75     20.00
    9.9016     30.21     29.45    -19.60     20.00
    9.9118     30.30     29.47    -19.53     20.00
    9.9219     29.47     29.49    -20.39     20.00
    9.9321     31.07     29.52    -18.81     20.00
    9.9422     30.51     29.54    -19.40     20.00
    9.9524     29.95     29.56    -19.98     20.00
    9.9626     30.33     29.59    -19.62     20.00
    9.9727     31.43     29.61    -18.55     20.00
    9.9829     30.57     29.64    -19.43     20.00
    9.9931     30.34     29.66    -19.69     20.00
   10.0032     30.69     29.69    -19.36     20.00
   10.0134     29.85     29.71    -20.23     20.00
   10.0236     30.82     29.74    -19.28     20.00
   10.0337     30.92     29.76    -19.21     20.00
   10.0439     30.08     29.79    -20.07     20.00
   10.0541     30.33     29.81    -19.85     20.00
   10.0642     30.66     29.84    -19.54     20.00
   10.0744     30.35     29.86    -19.88     20.00
   10.0845     30.18     29.89    -20.07     20.00
   10.0947     31.22     29.91    -19.06     20.00
   10.1049     31.32     29.94    -18.98     20.00
   10.1150     30.86     29.96    -19.47     20.00
   10.1252     31.07     29.99    -19.29     20.00
   10.1354     30.62     30.02    -19.76     20.00
   10.1455     30.82     30.04    -19.59     20.00
   10.1557     31.83     30.07    -18.60     20.00
   10.1659     30.90     30.09    -19.56     20.00
   10.1760     30.80     30.12    -19.69     20.00
   10.1862     31.84     30.15    -18.67     20.00
   10.1964     30.66     30.17    -19.88     20.00
   10.2065     31.68     30.20    -18.89     20.00
   10.2167     31.91     30.23    -18.68     20.00
   10.2269     30.91     30.25    -19.71     20.00
   10.2370     32.42     30.28    -18.23     20.00
   10.2472     31.01     30.31    -19.67     20.00
   10.2573     31.51     30.34    -19.19     20.00
   10.2675     31.09     30.36    -19.64     20.00
   10.2777     30.54     30.39    -20.22     20.00
   10.2878     30.55     30.42    -20.23     20.00
   10.2980     31.66     30.45    -19.15     20.00
   10.3082     31.45     30.47    -19.39     20.00
   10.3183     30.46     30.50    -20.41     20.00
   10.3285     31.61     30.53    -19.29     20.00
   10.3387     32.09     30.56    -18.83     20.00
   10.3488     31.54     30.59    -19.41     20.00
   10.3590     31.91     30.62    -19.07     20.00
   10.3692     32.08     30.64    -18.93     20.00
   10.3793     31.18     30.67    -19.86     20.00
   10.3895     31.04     30.70    -20.03     20.00
   10.3996     31.54     30.73    -19.56     20.00
   10.4098     31.37     30.76    -19.76     20.00
   10.4200     31.96     30.79    -19.19     20.00
   10.4301     32.33     30.82    -18.85     20.00
   10.4403     31.56     30.85    -19.65     20.00
   10.4505     31.65     30.88    -19.59     20.00
   10.4606     32.59     30.91    -18.68     20.00
   10.4708     32.63     30.94    -18.67     20.00
   10.4810     31.51     30.97    -19.82     20.00
   10.4911     31.11     31.00    -20.25     20.00
   10.5013     31.83     31.03    -19.56     20.00
   10.5115     31.78     31.06    -19.64     20.00
   10.5216     31.55     31.09    -19.90     20.00
   10.5318     32.05     31.12    -19.43     20.00
   10.5420     32.22     31.15    -19.29     20.00
   10.5521     33.20     31.18    -18.34     20.00
   10.5623     32.36     31.21    -19.22     20.00
   10.5724     32.45     31.24    -19.16     20.00
   10.5826     32.37     31.27    -19.27     20.00
   10.5928     31.95     31.30    -19.72     20.00
   10.6029     32.26     31.33    -19.44     20.00
   10.6131     32.37     31.37    -19.36     20.00
   10.6233     31.92     31.40    -19.84     20.00
   10.6334     33.00     31.43    -18.80     20.00
   10.6436     32.47     31.46    -19.36     20.00
   10.6538     32.80     31.49    -19.06     20.00
   10.6639     32.64     31.53    -19.25     20.00
   10.6741     31.98     31.56    -19.94     20.00
   10.6843     32.63     31.59    -19.33     20.00
   10.6944     32.82     31.62    -19.17     20.00
   10.7046     32.10     31.66    -19.92     20.00
   10.7147     32.40     31.69    -19.65     20.00
   10.7249     32.26     31.72    -19.83     20.00
   10.7351     32.77     31.75    -19.35     20.00
   10.7452     31.23     31.79    -20.92     20.00
   10.7554     33.06     31.82    -19.13     20.00
   10.7656     32.26     31.86    -19.96     20.00
   10.7757     32.43     31.89    -19.82     20.00
   10.7859     32.55     31.92    -19.74     20.00
   10.7961     32.54     31.96    -19.78     20.00
   10.8062     32.15     31.99    -20.21     20.00
   10.8164     32.94     32.02    -19.45     20.00
   10.8266     32.13     32.06    -20.30     20.00
   10.8367     32.80     32.09    -19.66     20.00
   10.8469     33.33     32.13    -19.16     20.00
   10.8571     32.78     32.16    -19.75     20.00
   10.8672     33.20     32.20    -19.36     20.00
   10.8774     32.70     32.23    -19.90     20.00
   10.8875     33.40     32.27    -19.23     20.00
   10.8977     32.53     32.30    -20.14     20.00
   10.9079     32.76     32.34    -19.95     20.00
   10.9180     32.66     32.37    -20.08     20.00
   10.9282     33.68     32.41    -19.10     20.00
   10.9384     33.53     32.45    -19.28     20.00
   10.9485     32.84     32.48    -20.01     20.00
   10.9587     33.16     32.52    -19.73     20.00
   10.9689     33.38     32.56    -19.54     20.00
   10.9790     32.70     32.59    -20.26     20.00
   10.9892     34.00     32.63    -18.99     20.00
   10.9994     34.01     32.67    -19.02     20.00
   11.0095     33.09     32.70    -19.98     20.00
   11.0197     34.02     32.74    -19.09     20.00
   11.0298     33.46     32.78    -19.68     20.00
   11.0400     33.18     32.81    -20.00     20.00
   11.0502     33.41     32.85    -19.81     20.00
   11.0603     33.90     32.89    -19.36     20.00
   11.0705     33.32     32.93    -19.97     20.00
   11.0807     33.46     32.97    -19.87     20.00
   11.0908     33.44     33.00    -19.93     20.00
   11.1010     34.34     33.04    -19.07     20.00
   11.1112     33.73     33.08    -19.72     20.00
   11.1213     33.40     33.12    -20.09     20.00
   11.1315     33.45     33.16    -20.08     20.00
   11.1417     33.55     33.20    -20.01     20.00
   11.1518     34.42     33.24    -19.18     20.00
   11.1620     33.48     33.28    -20.16     20.00
   11.1722     34.21     33.32    -19.47     20.00
   11.1823     34.41     33.36    -19.31     20.00
   11.1925     33.90     33.40    -19.86     20.00
   11.2026     35.17     33.44    -18.63     20.00
   11.2128     34.60     33.48    -19.24     20.00
   11.2230     34.02     33.52    -19.86     20.00
   11.2331     33.47     33.56    -20.45     20.00
   11.2433     34.12     33.60    -19.84     20.00
   11.2535     34.86     33.64    -19.14     20.00
   11.2636     33.13     33.68    -20.91     20.00
   11.2738     34.90     33.72    -19.19     20.00
   11.2840     33.79     33.76    -20.34     20.00
   11.2941     33.78     33.80    -20.39     20.00
   11.3043     34.13     33.84    -20.08     20.00
   11.3145     34.18     33.89    -20.07     20.00
   11.3246     34.04     33.93    -20.25     20.00
   11.3348     34.44     33.97    -19.90     20.00
   11.3449     33.64     34.01    -20.74     20.00
   11.3551     34.57     34.06    -19.85     20.00
   11.3653     34.76     34.10    -19.70     20.00
   11.3754     34.80     34.14    -19.71     20.00
   11.3856     34.80     34.18    -19.75     20.00
   11.3958     34.84     34.23    -19.75     20.00
   11.4059     35.15     34.27    -19.49     20.00
   11.4161     34.17     34.31    -20.51     20.00
   11.4263     35.10     34.36    -19.62     20.00
   11.4364     34.95     34.40    -19.82     20.00
   11.4466     35.44     34.45    -19.37     20.00
   11.4568     35.12     34.49    -19.74     20.00
   11.4669     34.33     34.53    -20.57     20.00
   11.4771     35.31     34.58    -19.63     20.00
   11.4873     35.66     34.62    -19.33     20.00
   11.4974     35.87     34.67    -19.16     20.00
   11.5076     35.05     34.71    -20.03     20.00
   11.5177     35.90     34.76    -19.22     20.00
   11.5279     34.70     34.80    -20.47     20.00
   11.5381     35.45     34.85    -19.77     20.00
   11.5482     34.92     34.90    -20.34     20.00
   11.5584     34.73     34.94    -20.58     20.00
   11.5686     34.88     34.99    -20.47     20.00
   11.5787     35.32     35.03    -20.08     20.00
   11.5889     35.04     35.08    -20.41     20.00
   11.5991     35.27     35.13    -20.22     20.00
   11.6092     35.70     35.17    -19.84     20.00
   11.6194     35.26     35.22    -20.33     20.00
   11.6296     35.49     35.27    -20.15     20.00
   11.6397     35.55     35.32    -20.13     20.00
   11.6499     35.26     35.36    -20.47     20.00
   11.6600     35.74     35.41    -20.04     20.00
   11.6702     35.99     35.46    -19.84     20.00
   11.6804     35.63     35.51    -20.24     20.00
   11.6905     36.46     35.56    -19.46     20.00
   11.7007     35.80     35.61    -20.17     20.00
   11.7109     36.51     35.65    -19.51     20.00
   11.7210     36.38     35.70    -19.69     20.00
   11.7312     35.65     35.75    -20.47     20.00
   11.7414     35.80     35.80    -20.37     20.00
   11.7515     35.68     35.85    -20.54     20.00
   11.7617     36.45     35.90    -19.82     20.00
   11.7719     36.48     35.95    -19.84     20.00
   11.7820     36.84     36.00    -19.53     20.00
   11.7922     36.01     36.05    -20.41     20.00
   11.8023     36.21     36.10    -20.26     20.00
   11.8125     36.24     36.15    -20.28     20.00
   11.8227     35.85     36.20    -20.72     20.00
   11.8328     35.87     36.26    -20.75     20.00
   11.8430     36.16     36.31    -20.51     20.00
   11.8532     35.87     36.36    -20.85     20.00
   11.8633     36.46     36.41    -20.32     20.00
   11.8735     36.02     36.46    -20.81     20.00
   11.8837     36.70     36.51    -20.18     20.00
   11.8938     36.25     36.57    -20.68     20.00
   11.9040     37.35     36.62    -19.64     20.00
   11.9142     37.13     36.67    -19.91     20.00
   11.9243     36.47     36.73    -20.62     20.00
   11.9345     37.27     36.78    -19.87     20.00
   11.9447     36.77     36.83    -20.43     20.00
   11.9548     36.89     36.89    -20.36     20.00
   11.9650     37.38     36.94    -19.93     20.00
   11.9751     36.87     36.99    -20.49     20.00
   11.9853     36.85     37.05    -20.56     20.00
   11.9955     37.12     37.10    -20.35     20.00
   12.0056     37.98     37.16    -19.54     20.00
   12.0158     37.09     37.21    -20.49     20.00
   12.0260     36.64     37.27    -20.99     20.00
   12.0361     37.82     37.32    -19.87     20.00
   12.0463     37.59     37.38    -20.15     20.00
   12.0565     36.68     37.43    -21.12     20.00
   12.0666     37.40     37.49    -20.45     20.00
   12.0768     38.00     37.55    -19.91     20.00
   12.0870     36.95     37.60    -21.02     20.00
   12.0971     38.52     37.66    -19.50     20.00
   12.1073     38.28     37.71    -19.80     20.00
   12.1174     37.11     37.77    -21.03     20.00
   12.1276     39.01     37.83    -19.18     20.00
   12.1378     37.79     37.89    -20.46     20.00
   12.1479     37.55     37.94    -20.76     20.00
   12.1581     37.94     38.00    -20.43     20.00
   12.1683     37.77     38.06    -20.66     20.00
   12.1784     37.36     38.12    -21.12     20.00
   12.1886     38.66     38.18    -19.88     20.00
   12.1988     38.21     38.24    -20.39     20.00
   12.2089     37.59     38.29    -21.07     20.00
   12.2191     39.04     38.35    -19.68     20.00
   12.2293     38.13     38.41    -20.65     20.00
   12.2394     37.60     38.47    -21.24     20.00
   12.2496     37.97     38.53    -20.93     20.00
   12.2598     37.73     38.59    -21.23     20.00
   12.2699     38.58     38.65    -20.44     20.00
   12.2801     37.84     38.71    -21.24     20.00
   12.2902     37.74     38.77    -21.40     20.00
   12.3004     39.14     38.83    -20.06     20.00
   12.3106     39.33     38.90    -19.93     20.00
   12.3207     38.59     38.96    -20.73     20.00
   12.3309     37.43     39.02    -21.95     20.00
   12.3411     38.80     39.08    -20.65     20.00
   12.3512     37.88     39.14    -21.63     20.00
   12.3614     38.12     39.21    -21.45     20.00
   12.3716     40.13     39.27    -19.50     20.00
   12.3817     38.51     39.33    -21.19     20.00
   12.3919     39.48     39.39    -20.28     20.00
   12.4021     39.35     39.46    -20.47     20.00
   12.4122     38.61     39.52    -21.28     20.00
   12.4224     39.21     39.58    -20.74     20.00
   12.4325     38.93     39.65    -21.08     20.00
   12.4427     39.37     39.71    -20.71     20.00
   12.4529     39.66     39.78    -20.48     20.00
   12.4630     39.81     39.84    -20.40     20.00
   12.4732     39.96     39.91    -20.31     20.00
   12.4834     40.40     39.97    -19.94     20.00
   12.4935     39.91     40.04    -20.49     20.00
   12.5037     39.03     40.10    -21.44     20.00
   12.5139     40.60     40.17    -19.93     20.00
   12.5240     39.91     40.23    -20.69     20.00
   12.5342     39.70     40.30    -20.97     20.00
   12.5444     39.66     40.37    -21.07     20.00
   12.5545     40.82     40.43    -19.98     20.00
   12.5647     40.01     40.50    -20.86     20.00
   12.5749     41.09     40.57    -19.84     20.00
   12.5850     40.48     40.64    -20.52     20.00
   12.5952     40.27     40.70    -20.80     20.00
   12.6053     40.24     40.77    -20.90     20.00
   12.6155     40.94     40.84    -20.27     20.00
   12.6257     39.85     40.91    -21.42     20.00
   12.6358     40.65     40.98    -20.69     20.00
   12.6460     40.37     41.05    -21.04     20.00
   12.6562     39.67     41.11    -21.81     20.00
   12.6663     41.56     41.18    -19.99     20.00
   12.6765     39.68     41.25    -21.94     20.00
   12.6867     40.27     41.32    -21.42     20.00
   12.6968     39.75     41.39    -22.01     20.00
   12.7070     40.70     41.46    -21.13     20.00
   12.7172     40.68     41.54    -21.22     20.00
   12.7273     41.08     41.61    -20.89     20.00
   12.7375     41.07     41.68    -20.97     20.00
   12.7476     40.87     41.75    -21.24     20.00
   12.7578     41.62     41.82    -20.57     20.00
   12.7680     41.04     41.89    -21.22     20.00
   12.7781     41.08     41.96    -21.25     20.00
   12.7883     40.49     42.04    -21.91     20.00
   12.7985     41.10     42.11    -21.38     20.00
   12.8086     41.20     42.18    -21.35     20.00
   12.8188     41.46     42.26    -21.16     20.00
   12.8290     42.10     42.33    -20.60     20.00
   12.8391     41.10     42.40    -21.67     20.00
   12.8493     42.46     42.48    -20.38     20.00
   12.8595     41.11     42.55    -21.81     20.00
   12.8696     41.88     42.63    -21.11     20.00
   12.8798     42.54     42.70    -20.53     20.00
   12.8900     41.84     42.78    -21.30     20.00
   12.9001     42.10     42.85    -21.12     20.00
   12.9103     41.88     42.93    -21.41     20.00
   12.9204     42.21     43.00    -21.16     20.00
   12.9306     42.78     43.08    -20.66     20.00
   12.9408     42.05     43.15    -21.47     20.00
   12.9509     42.15     43.23    -21.45     20.00
   12.9611     41.94     43.31    -21.73     20.00
   12.9713     42.40     43.38    -21.35     20.00
   12.9814     43.05     43.46    -20.78     20.00
   12.9916     43.06     43.54    -20.84     20.00
   13.0018     43.15     43.62    -20.83     20.00
   13.0119     42.96     43.69    -21.10     20.00
   13.0221     42.67     43.77    -21.47     20.00
   13.0323     42.43     43.85    -21.79     20.00
   13.0424     42.85     43.93    -21.45     20.00
   13.0526     43.38     44.01    -21.00     20.00
   13.0627     42.49     44.09    -21.96     20.00
   13.0729     42.35     44.17    -22.18     20.00
   13.0831     43.43     44.25    -21.19     20.00
   13.0932     42.89     44.33    -21.80     20.00
   13.1034     42.96     44.41    -21.82     20.00
   13.1136     43.67     44.49    -21.19     20.00
   13.1237     43.33     44.57    -21.61     20.00
   13.1339     43.98     44.65    -21.04     20.00
   13.1441     44.35     44.73    -20.75     20.00
   13.1542     43.53     44.82    -21.65     20.00
   13.1644     43.98     44.90    -21.28     20.00
   13.1746     45.15     44.98    -20.20     20.00
   13.1847     44.30     45.06    -21.13     20.00
   13.1949     44.65     45.15    -20.86     20.00
   13.2051     44.85     45.23    -20.75     20.00
   13.2152     44.32     45.31    -21.36     20.00
   13.2254     44.50     45.40    -21.26     20.00
   13.2355     44.76     45.48    -21.09     20.00
   13.2457     44.11     45.56    -21.82     20.00
   13.2559     44.51     45.65    -21.51     20.00
   13.2660     45.21     45.73    -20.89     20.00
   13.2762     45.24     45.82    -20.95     20.00
   13.2864     45.52     45.90    -20.75     20.00
   13.2965     44.20     45.99    -22.16     20.00
   13.3067     44.90     46.08    -21.54     20.00
   13.3169     45.24     46.16    -21.29     20.00
   13.3270     44.55     46.25    -22.06     20.00
   13.3372     44.88     46.34    -21.82     20.00
   13.3474     44.97     46.42    -21.82     20.00
   13.3575     46.16     46.51    -20.72     20.00
   13.3677     45.62     46.60    -21.34     20.00
   13.3778     44.84     46.68    -22.21     20.00
   13.3880     45.41     46.77    -21.73     20.00
   13.3982     46.10     46.86    -21.13     20.00
   13.4083     45.91     46.95    -21.41     20.00
   13.4185     47.68     47.04    -19.73     20.00
   13.4287     45.88     47.13    -21.61     20.00
   13.4388     46.23     47.22    -21.35     20.00
   13.4490     46.48     47.31    -21.19     20.00
   13.4592     45.42     47.40    -22.34     20.00
   13.4693     46.43     47.49    -21.42     20.00
   13.4795     46.81     47.58    -21.13     20.00
   13.4897     46.79     47.67    -21.25     20.00
   13.4998     46.76     47.76    -21.37     20.00
   13.5100     47.01     47.85    -21.21     20.00
   13.5201     45.98     47.94    -22.33     20.00
   13.5303     46.65     48.04    -21.75     20.00
   13.5405     47.01     48.13    -21.48     20.00
   13.5506     46.32     48.22    -22.27     20.00
   13.5608     46.93     48.31    -21.75     20.00
   13.5710     46.78     48.41    -21.99     20.00
   13.5811     48.20     48.50    -20.67     20.00
   13.5913     48.20     48.59    -20.76     20.00
   13.6015     47.40     48.69    -21.65     20.00
   13.6116     48.34     48.78    -20.81     20.00
   13.6218     47.63     48.88    -21.61     20.00
   13.6320     46.91     48.97    -22.43     20.00
   13.6421     48.56     49.07    -20.87     20.00
   13.6523     48.10     49.16    -21.43     20.00
   13.6625     48.39     49.26    -21.24     20.00
   13.6726     47.64     49.35    -22.08     20.00
   13.6828     48.68     49.45    -21.14     20.00
   13.6929     48.37     49.55    -21.54     20.00
   13.7031     48.96     49.64    -21.05     20.00
   13.7133     48.62     49.74    -21.49     20.00
   13.7234     48.32     49.84    -21.89     20.00
   13.7336     49.13     49.94    -21.17     20.00
   13.7438     50.02     50.04    -20.38     20.00
   13.7539     48.32     50.13    -22.18     20.00
   13.7641     49.22     50.23    -21.38     20.00
   13.7743     48.80     50.33    -21.90     20.00
   13.7844     48.94     50.43    -21.86     20.00
   13.7946     49.05     50.53    -21.85     20.00
   13.8048     48.95     50.63    -22.05     20.00
   13.8149     48.58     50.73    -22.52     20.00
   13.8251     49.25     50.83    -21.95     20.00
   13.8352     49.74     50.93    -21.56     20.00
   13.8454     49.51     51.03    -21.89     20.00
   13.8556     49.57     51.13    -21.93     20.00
   13.8657     51.26     51.23    -20.34     20.00
   13.8759     49.56     51.34    -22.14     20.00
   13.8861     50.40     51.44    -21.41     20.00
   13.8962     50.07     51.54    -21.84     20.00
   13.9064     51.60     51.64    -20.41     20.00
   13.9166     51.06     51.75    -21.05     20.00
   13.9267     50.43     51.85    -21.79     20.00
   13.9369     49.30     51.95    -23.02     20.00
   13.9471     52.18     52.06    -20.24     20.00
   13.9572     49.98     52.16    -22.55     20.00
   13.9674     51.40     52.27    -21.23     20.00
   13.9776     51.82     52.37    -20.92     20.00
   13.9877     50.48     52.48    -22.36     20.00
   13.9979     51.05     52.58    -21.90     20.00
   14.0080     51.16     52.69    -21.89     20.00
   14.0182     51.09     52.79    -22.07     20.00
   14.0284     51.76     52.90    -21.51     20.00
   14.0385     51.45     53.01    -21.92     20.00
   14.0487     51.39     53.11    -22.09     20.00
   14.0589     51.98     53.22    -21.61     20.00
   14.0690     52.20     53.33    -21.49     20.00
   14.0792     52.40     53.44    -21.40     20.00
   14.0894     52.18     53.54    -21.73     20.00
   14.0995     52.07     53.65    -21.95     20.00
   14.1097     52.01     53.76    -22.12     20.00
   14.1199     52.93     53.87    -21.31     20.00
   14.1300     52.54     53.98    -21.80     20.00
   14.1402     52.24     54.09    -22.21     20.00
   14.1503     51.80     54.20    -22.76     20.00
   14.1605     52.89     54.31    -21.78     20.00
   14.1707     53.40     54.42    -21.38     20.00
   14.1808     53.33     54.53    -21.56     20.00
   14.1910     52.45     54.64    -22.56     20.00
   14.2012     53.87     54.75    -21.25     20.00
   14.2113     53.30     54.86    -21.93     20.00
   14.2215     53.63     54.97    -21.71     20.00
   14.2317     53.75     55.09    -21.70     20.00
   14.2418     53.62     55.20    -21.94     20.00
   14.2520     54.25     55.31    -21.43     20.00
   14.2622     53.82     55.43    -21.97     20.00
   14.2723     53.57     55.54    -22.33     20.00
   14.2825     54.63     55.65    -21.39     20.00
   14.2927     55.29     55.77    -20.84     20.00
   14.3028     53.96     55.88    -22.29     20.00
   14.3130     54.86     55.99    -21.50     20.00
   14.3231     53.92     56.11    -22.55     20.00
   14.3333     54.58     56.22    -22.01     20.00
   14.3435     55.21     56.34    -21.50     20.00
   14.3536     55.35     56.46    -21.47     20.00
   14.3638     54.56     56.57    -22.38     20.00
   14.3740     56.02     56.69    -21.03     20.00
   14.3841     56.68     56.80    -20.49     20.00
   14.3943     54.87     56.92    -22.42     20.00
   14.4045     55.31     57.04    -22.10     20.00
   14.4146     54.45     57.16    -23.07     20.00
   14.4248     55.09     57.27    -22.55     20.00
   14.4350     55.49     57.39    -22.27     20.00
   14.4451     54.07     57.51    -23.81     20.00
   14.4553     56.32     57.63    -21.68     20.00
   14.4654     55.43     57.75    -22.68     20.00
   14.4756     56.11     57.87    -22.12     20.00
   14.4858     56.43     57.99    -21.92     20.00
   14.4959     57.07     58.11    -21.40     20.00
   14.5061     55.80     58.23    -22.79     20.00
   14.5163     56.24     58.35    -22.47     20.00
   14.5264     55.59     58.47    -23.24     20.00
   14.5366     58.03     58.59    -20.93     20.00
   14.5468     57.54     58.71    -21.54     20.00
   14.5569     57.63     58.83    -21.57     20.00
   14.5671     58.08     58.95    -21.24     20.00
   14.5773     57.60     59.08    -21.84     20.00
   14.5874     59.45     59.20    -20.12     20.00
   14.5976     58.25     59.32    -21.44     20.00
   14.6078     56.70     59.45    -23.11     20.00
   14.6179     57.34     59.57    -22.59     20.00
   14.6281     58.22     59.69    -21.84     20.00
   14.6382     57.69     59.82    -22.49     20.00
   14.6484     57.68     59.94    -22.63     20.00
   14.6586     58.81     60.07    -21.62     20.00
   14.6687     58.93     60.19    -21.63     20.00
   14.6789     59.53     60.32    -21.15     20.00
   14.6891     59.65     60.44    -21.16     20.00
   14.6992     59.27     60.57    -21.66     20.00
   14.7094     60.23     60.69    -20.83     20.00
   14.7196     60.20     60.82    -20.99     20.00
   14.7297     58.87     60.95    -22.44     20.00
   14.7399     59.74     61.07    -21.70     20.00
   14.7501     59.62     61.20    -21.95     20.00
   14.7602     61.09     61.33    -20.60     20.00
   14.7704     59.65     61.46    -22.17     20.00
   14.7805     59.48     61.58    -22.47     20.00
   14.7907     59.94     61.71    -22.14     20.00
   14.8009     61.04     61.84    -21.17     20.00
   14.8110     60.68     61.97    -21.66     20.00
   14.8212     60.92     62.10    -21.55     20.00
   14.8314     59.93     62.23    -22.67     20.00
   14.8415     60.66     62.36    -22.07     20.00
   14.8517     60.42     62.49    -22.44     20.00
   14.8619     62.43     62.62    -20.56     20.00
   14.8720     61.73     62.75    -21.39     20.00
   14.8822     61.43     62.88    -21.82     20.00
   14.8924     61.71     63.01    -21.67     20.00
   14.9025     61.30     63.14    -22.21     20.00
   14.9127     61.97     63.28    -21.67     20.00
   14.9229     61.37     63.41    -22.41     20.00
   14.9330     61.45     63.54    -22.46     20.00
   14.9432     61.26     63.68    -22.78     20.00
   14.9533     62.80     63.81    -21.37     20.00
   14.9635     62.18     63.94    -22.13     20.00
   14.9737     61.90     64.08    -22.54     20.00
   14.9838     63.36     64.21    -21.21     20.00
   14.9940     63.19     64.34    -21.52     20.00
   15.0042     64.02     64.48    -20.82     20.00
   15.0143     63.76     64.61    -21.22     20.00
   15.0245     63.93     64.75    -21.18     20.00
   15.0347     63.69     64.88    -21.56     20.00
   15.0448     63.68     65.02    -21.70     20.00
   15.0550     63.57     65.16    -21.95     20.00
   15.0652     65.16     65.29    -20.50     20.00
   15.0753     63.05     65.43    -22.74     20.00
   15.0855     65.09     65.56    -20.84     20.00
   15.0956     65.18     65.70    -20.89     20.00
   15.1058     64.90     65.84    -21.31     20.00
   15.1160     64.84     65.98    -21.50     20.00
   15.1261     65.22     66.11    -21.26     20.00
   15.1363     64.37     66.25    -22.25     20.00
   15.1465     65.46     66.39    -21.30     20.00
   15.1566     65.13     66.53    -21.77     20.00
   15.1668     65.95     66.67    -21.09     20.00
   15.1770     66.89     66.81    -20.29     20.00
   15.1871     65.86     66.95    -21.45     20.00
   15.1973     66.21     67.09    -21.25     20.00
   15.2075     66.96     67.23    -20.64     20.00
   15.2176     67.40     67.37    -20.34     20.00
   15.2278     66.16     67.51    -21.72     20.00
   15.2380     66.73     67.65    -21.29     20.00
   15.2481     66.34     67.79    -21.82     20.00
   15.2583     67.35     67.94    -20.95     20.00
   15.2684     67.16     68.08    -21.28     20.00
   15.2786     66.56     68.22    -22.03     20.00
   15.2888     68.26     68.36    -20.47     20.00
   15.2989     68.13     68.50    -20.74     20.00
   15.3091     67.83     68.65    -21.18     20.00
   15.3193     67.48     68.79    -21.68     20.00
   15.3294     68.01     68.93    -21.29     20.00
   15.3396     68.36     69.08    -21.08     20.00
   15.3498     68.49     69.22    -21.10     20.00
   15.3599     67.57     69.37    -22.16     20.00
   15.3701     67.76     69.51    -22.12     20.00
   15.3803     68.84     69.66    -21.18     20.00
   15.3904     69.12     69.80    -21.05     20.00
   15.4006     68.42     69.95    -21.89     20.00
   15.4107     70.66     70.09    -19.80     20.00
   15.4209     69.43     70.24    -21.18     20.00
   15.4311     68.58     70.39    -22.17     20.00
   15.4412     70.04     70.53    -20.86     20.00
   15.4514     68.98     70.68    -22.07     20.00
   15.4616     69.59     70.83    -21.60     20.00
   15.4717     71.41     70.97    -19.93     20.00
   15.4819     70.19     71.12    -21.30     20.00
   15.4921     70.58     71.27    -21.06     20.00
   15.5022     70.18     71.42    -21.60     20.00
   15.5124     71.53     71.57    -20.40     20.00
   15.5226     71.09     71.72    -20.99     20.00
   15.5327     70.84     71.87    -21.39     20.00
   15.5429     70.33     72.02    -22.05     20.00
   15.5530     72.30     72.16    -20.23     20.00
   15.5632     70.52     72.31    -22.16     20.00
   15.5734     71.58     72.47    -21.25     20.00
   15.5835     72.23     72.61    -20.75     20.00
   15.5937     73.05     72.77    -20.08     20.00
   15.6039     72.40     72.92    -20.88     20.00
   15.6140     72.07     73.07    -21.36     20.00
   15.6242     72.68     73.22    -20.91     20.00
   15.6344     72.99     73.37    -20.75     20.00
   15.6445     74.34     73.52    -19.55     20.00
   15.6547     73.53     73.68    -20.51     20.00
   15.6649     73.26     73.83    -20.94     20.00
   15.6750     73.03     73.98    -21.32     20.00
   15.6852     73.06     74.14    -21.44     20.00
   15.6954     72.16     74.29    -22.50     20.00
   15.7055     73.86     74.44    -20.95     20.00
   15.7157     76.24     74.60    -18.72     20.00
   15.7258     74.28     74.75    -20.84     20.00
   15.7360     74.62     74.90    -20.65     20.00
   15.7462     74.66     75.06    -20.77     20.00
   15.7563     75.57     75.21    -20.01     20.00
   15.7665     75.35     75.37    -20.39     20.00
   15.7767     74.32     75.53    -21.57     20.00
   15.7868     75.48     75.68    -20.57     20.00
   15.7970     76.02     75.84    -20.18     20.00
   15.8072     75.20     75.99    -21.16     20.00
   15.8173     75.91     76.15    -20.61     20.00
   15.8275     76.62     76.31    -20.05     20.00
   15.8377     75.85     76.46    -20.98     20.00
   15.8478     76.42     76.62    -20.57     20.00
   15.8580     76.56     76.78    -20.59     20.00
   15.8681     75.92     76.94    -21.38     20.00
   15.8783     77.37     77.09    -20.09     20.00
   15.8885     77.13     77.25    -20.49     20.00
   15.8986     76.87     77.41    -20.91     20.00
   15.9088     77.96     77.57    -19.98     20.00
   15.9190     79.25     77.73    -18.85     20.00
   15.9291     77.32     77.89    -20.94     20.00
   15.9393     77.20     78.05    -21.22     20.00
   15.9495     78.71     78.21    -19.87     20.00
   15.9596     78.61     78.37    -20.13     20.00
   15.9698     79.48     78.53    -19.42     20.00
   15.9800     79.32     78.69    -19.74     20.00
   15.9901     77.93     78.85    -21.29     20.00
   16.0003     79.46     79.01    -19.92     20.00
   16.0105     79.01     79.18    -20.53     20.00
   16.0206     80.20     79.34    -19.50     20.00
   16.0308     79.87     79.50    -20.00     20.00
   16.0409     78.77     79.66    -21.26     20.00
   16.0511     80.00     79.82    -20.19     20.00
   16.0613     80.02     79.99    -20.33     20.00
   16.0714     79.77     80.15    -20.75     20.00
   16.0816     81.43     80.31    -19.25     20.00
   16.0918     80.30     80.48    -20.54     20.00
   16.1019     80.35     80.64    -20.66     20.00
   16.1121     80.34     80.80    -20.83     20.00
   16.1223     80.48     80.97    -20.86     20.00
   16.1324     82.46     81.13    -19.04     20.00
   16.1426     83.51     81.30    -18.15     20.00
   16.1528     82.54     81.46    -19.29     20.00
   16.1629     80.80     81.63    -21.20     20.00
   16.1731     83.27     81.80    -18.89     20.00
   16.1832     81.01     81.96    -21.32     20.00
   16.1934     83.25     82.13    -19.24     20.00
   16.2036     83.09     82.29    -19.57     20.00
   16.2137     83.70     82.46    -19.13     20.00
   16.2239     83.38     82.63    -19.61     20.00
   16.2341     83.12     82.80    -20.04     20.00
   16.2442     83.34     82.96    -19.99     20.00
   16.2544     83.19     83.13    -20.31     20.00
   16.2646     85.85     83.30    -17.82     20.00
   16.2747     83.10     83.47    -20.73     20.00
   16.2849     85.65     83.64    -18.35     20.00
   16.2951     84.65     83.81    -19.52     20.00
   16.3052     84.63     83.97    -19.71     20.00
   16.3154     84.88     84.14    -19.63     20.00
   16.3256     86.95     84.31    -17.73     20.00
   16.3357     85.46     84.48    -19.39     20.00
   16.3459     85.60     84.65    -19.42     20.00
   16.3560     84.75     84.82    -20.44     20.00
   16.3662     86.39     84.99    -18.97     20.00
   16.3764     86.27     85.17    -19.26     20.00
   16.3865     88.37     85.34    -17.33     20.00
   16.3967     88.33     85.51    -17.54     20.00
   16.4069     87.45     85.68    -18.60     20.00
   16.4170     87.43     85.85    -18.79     20.00
   16.4272     87.98     86.03    -18.41     20.00
   16.4374     87.41     86.20    -19.15     20.00
   16.4475     88.14     86.37    -18.60     20.00
   16.4577     88.50     86.54    -18.41     20.00
   16.4679     87.76     86.72    -19.32     20.00
   16.4780     88.27     86.89    -18.99     20.00
   16.4882     88.75     87.07    -18.68     20.00
   16.4983     89.53     87.24    -18.08     20.00
   16.5085     89.92     87.42    -17.86     20.00
   16.5187     89.19     87.59    -18.77     20.00
   16.5288     90.35     87.77    -17.78     20.00
   16.5390     90.99     87.94    -17.32     20.00
   16.5492     89.09     88.12    -19.39     20.00
   16.5593     90.92     88.29    -17.74     20.00
   16.5695     89.96     88.47    -18.88     20.00
   16.5797     91.43     88.65    -17.58     20.00
   16.5898     90.01     88.82    -19.18     20.00
   16.6000     92.35     89.00    -17.02     20.00
   16.6102     90.54     89.18    -19.01     20.00
   16.6203     91.15     89.36    -18.57     20.00
   16.6305     92.53     89.54    -17.37     20.00
   16.6407     91.49     89.72    -18.59     20.00
   16.6508     91.17     89.90    -19.09     20.00
   16.6610     92.90     90.08    -17.54     20.00
   16.6711     94.37     90.25    -16.25     20.00
   16.6813     93.17     90.43    -17.63     20.00
   16.6915     93.29     90.62    -17.69     20.00
   16.7016     94.71     90.80    -16.45     20.00
   16.7118     93.72     90.98    -17.62     20.00
   16.7220     94.98     91.16    -16.55     20.00
   16.7321     94.00     91.34    -17.71     20.00
   16.7423     93.82     91.52    -18.07     20.00
   16.7525     95.07     91.71    -17.00     20.00
   16.7626     94.59     91.89    -17.67     20.00
   16.7728     94.83     92.07    -17.61     20.00
   16.7830     95.40     92.26    -17.22     20.00
   16.7931     95.91     92.44    -16.90     20.00
   16.8033     94.74     92.63    -18.25     20.00
   16.8134     96.83     92.81    -16.35     20.00
   16.8236     95.22     93.00    -18.14     20.00
   16.8338     95.68     93.18    -17.87     20.00
   16.8439     96.14     93.37    -17.60     20.00
   16.8541     96.66     93.56    -17.26     20.00
   16.8643     96.45     93.74    -17.66     20.00
   16.8744     97.52     93.93    -16.78     20.00
   16.8846     97.44     94.12    -17.05     20.00
   16.8948     98.12     94.31    -16.56     20.00
   16.9049     97.37     94.50    -17.49     20.00
   16.9151     97.26     94.69    -17.79     20.00
   16.9253     98.38     94.88    -16.86     20.00
   16.9354     96.82     95.07    -18.61     20.00
   16.9456     98.58     95.26    -17.05     20.00
   16.9558     98.73     95.45    -17.09     20.00
   16.9659     99.12     95.64    -16.89     20.00
   16.9761     97.95     95.84    -18.25     20.00
   16.9862     99.98     96.03    -16.41     20.00
   16.9964    100.36     96.22    -16.23     20.00
   17.0066     98.97     96.42    -17.81     20.00
   17.0167     99.08     96.61    -17.90     20.00
   17.0269    101.70     96.81    -15.47     20.00
   17.0371    101.10     97.01    -16.27     20.00
   17.0472    100.76     97.20    -16.81     20.00
   17.0574    100.63     97.40    -17.14     20.00
   17.0676    100.73     97.60    -17.23     20.00
   17.0777    101.11     97.80    -17.05     20.00
   17.0879    102.08     98.00    -16.28     20.00
   17.0981     99.87     98.20    -18.69     20.00
   17.1082    102.59     98.40    -16.17     20.00
   17.1184    103.15     98.60    -15.82     20.00
   17.1285    102.51     98.80    -16.66     20.00
   17.1387    101.66     99.01    -17.71     20.00
   17.1489    102.85     99.21    -16.73     20.00
   17.1590    103.19     99.41    -16.59     20.00
   17.1692    103.95     99.62    -16.04     20.00
   17.1794    103.16     99.83    -17.03     20.00
   17.1895    102.42    100.03    -17.98     20.00
   17.1997    103.07    100.24    -17.54     20.00
   17.2099    104.82    100.45    -16.00     20.00
   17.2200    102.02    100.66    -19.01     20.00
   17.2302    103.57    100.88    -17.67     20.00
   17.2404    104.41    101.09    -17.05     20.00
   17.2505    104.22    101.30    -17.45     20.00
   17.2607    105.27    101.52    -16.61     20.00
   17.2709    106.86    101.74    -15.24     20.00
   17.2810    105.17    101.95    -17.15     20.00
   17.2912    106.24    102.17    -16.30     20.00
   17.3013    105.02    102.39    -17.74     20.00
   17.3115    106.43    102.61    -16.55     20.00
   17.3217    106.15    102.84    -17.05     20.00
   17.3318    104.79    103.06    -18.64     20.00
   17.3420    106.30    103.29    -17.36     20.00
   17.3522    107.03    103.52    -16.86     20.00
   17.3623    108.65    103.75    -15.46     20.00
   17.3725    107.13    103.98    -17.22     20.00
   17.3827    108.59    104.22    -15.99     20.00
   17.3928    108.01    104.45    -16.81     20.00
   17.4030    107.82    104.69    -17.24     20.00
   17.4132    107.55    104.93    -17.75     20.00
   17.4233    109.40    105.17    -16.14     20.00
   17.4335    108.49    105.42    -17.30     20.00
   17.4436    110.41    105.67    -15.62     20.00
   17.4538    107.88    105.92    -18.40     20.00
   17.4640    108.71    106.17    -17.83     20.00
   17.4741    109.61    106.43    -17.19     20.00
   17.4843    109.87    106.69    -17.19     20.00
   17.4945    109.29    106.96    -18.03     20.00
   17.5046    110.62    107.22    -16.97     20.00
   17.5148    109.82    107.49    -18.04     20.00
   17.5250    110.76    107.77    -17.38     20.00
   17.5351    110.52    108.05    -17.90     20.00
   17.5453    113.11    108.34    -15.59     20.00
   17.5555    112.18    108.63    -16.81     20.00
   17.5656    110.76    108.92    -18.53     20.00
   17.5758    112.27    109.22    -17.32     20.00
   17.5859    113.10    109.52    -16.79     20.00
   17.5961    115.70    109.84    -14.50     20.00
   17.6063    114.30    110.16    -16.22     20.00
   17.6164    115.56    110.48    -15.29     20.00
   17.6266    114.08    110.81    -17.10     20.00
   17.6368    115.96    111.15    -15.56     20.00
   17.6469    114.30    111.50    -17.56     20.00
   17.6571    115.65    111.86    -16.57     20.00
   17.6673    115.48    112.22    -17.11     20.00
   17.6774    116.26    112.59    -16.70     20.00
   17.6876    115.96    112.98    -17.38     20.00
   17.6978    116.18    113.37    -17.56     20.00
   17.7079    117.72    113.77    -16.42     20.00
   17.7181    116.76    114.19    -17.80     20.00
   17.7283    119.62    114.62    -15.36     20.00
   17.7384    118.32    115.06    -17.10     20.00
   17.7486    119.10    115.51    -16.78     20.00
   17.7587    119.56    115.97    -16.78     20.00
   17.7689    119.45    116.46    -17.37     20.00
   17.7791    120.82    116.95    -16.50     20.00
   17.7892    120.43    117.46    -17.40     20.00
   17.7994    121.95    117.99    -16.41     20.00
   17.8096    121.70    118.54    -17.20     20.00
   17.8197    124.29    119.09    -15.17     20.00
   17.8299    123.25    119.68    -16.79     20.00
   17.8401    123.93    120.28    -16.71     20.00
   17.8502    126.56    120.89    -14.70     20.00
   17.8604    124.38    121.54    -17.52     20.00
   17.8706    124.62    122.20    -17.95     20.00
   17.8807    127.76    122.88    -15.49     20.00
   17.8909    125.65    123.59    -18.31     20.00
   17.9010    129.18    124.32    -15.50     20.00
   17.9112    129.51    125.08    -15.93     20.00
   17.9214    128.21    125.86    -18.02     20.00
   17.9315    129.64    126.66    -17.39     20.00
   17.9417    130.80    127.50    -17.07     20.00
   17.9519    129.34    128.37    -19.39     20.00
   17.9620    130.15    129.25    -19.47     20.00
   17.9722    132.62    130.18    -17.92     20.00
   17.9824    132.68    131.13    -18.82     20.00
   17.9925    134.05    132.11    -18.42     20.00
   18.0027    134.51    133.12    -18.98     20.00
   18.0129    136.48    134.17    -18.06     20.00
   18.0230    138.83    135.24    -16.78     20.00
   18.0332    138.33    136.36    -18.39     20.00
   18.0434    137.65    137.50    -20.22     20.00
   18.0535    138.08    138.68    -20.96     20.00
   18.0637    142.75    139.89    -17.51     20.00
   18.0738    141.38    141.13    -20.12     20.00
   18.0840    141.71    142.42    -21.08     20.00
   18.0942    143.43    143.75    -20.68     20.00
   18.1043    144.91    145.09    -20.55     20.00
   18.1145    146.62    146.49    -20.24     20.00
   18.1247    148.73    147.92    -19.56     20.00
   18.1348    150.02    149.38    -19.72     20.00
   18.1450    150.33    150.88    -20.92     20.00
   18.1552    153.49    152.42    -19.30     20.00
   18.1653    150.52    153.98    -23.83     20.00
   18.1755    153.76    155.59    -22.20     20.00
   18.1857    156.85    157.24    -20.75     20.00
   18.1958    157.33    158.90    -21.94     20.00
   18.2060    155.84    160.61    -25.14     20.00
   18.2161    158.82    162.34    -23.89     20.00
   18.2263    160.33    164.12    -24.15     20.00
   18.2365    160.67    165.92    -25.62     20.00
   18.2466    165.36    167.74    -22.75     20.00
   18.2568    165.85    169.61    -24.12     20.00
   18.2670    168.11    171.50    -23.75     20.00
   18.2771    170.15    173.40    -23.61     20.00
   18.2873    173.36    175.33    -22.34     20.00
   18.2975    171.87    177.29    -25.79     20.00
   18.3076    176.71    179.25    -22.91     20.00
   18.3178    177.11    181.25    -24.50     20.00
   18.3280    178.16    183.25    -25.46     20.00
   18.3381    181.81    185.25    -23.81     20.00
   18.3483    183.53    187.28    -24.12     20.00
   18.3585    182.54    189.31    -27.14     20.00
   18.3686    189.93    191.32    -21.76     20.00
   18.3788    190.92    193.35    -22.80     20.00
   18.3889    191.23    195.36    -24.50     20.00
   18.3991    193.67    197.37    -24.07     20.00
   18.4093    194.43    199.37    -25.31     20.00
   18.4194    197.63    201.33    -24.07     20.00
   18.4296    201.78    203.29    -21.88     20.00
   18.4398    202.76    205.22    -22.82     20.00
   18.4499    205.50    207.09    -21.96     20.00
   18.4601    207.80    208.94    -21.51     20.00
   18.4703    209.18    210.75    -21.94     20.00
   18.4804    209.41    212.49    -23.44     20.00
   18.4906    215.04    214.19    -19.51     20.00
   18.5008    212.96    215.82    -23.22     20.00
   18.5109    215.47    217.37    -22.26     20.00
   18.5211    217.35    218.86    -21.87     20.00
   18.5312    220.89    220.25    -19.73     20.00
   18.5414    221.57    221.57    -20.37     20.00
   18.5516    224.63    222.80    -18.53     20.00
   18.5617    227.01    223.92    -17.27     20.00
   18.5719    224.20    224.94    -21.11     20.00
   18.5821    228.13    225.86    -18.09     20.00
   18.5922    227.79    226.65    -19.23     20.00
   18.6024    228.51    227.34    -19.19     20.00
   18.6126    231.70    227.90    -16.57     20.00
   18.6227    231.01    228.34    -17.70     20.00
   18.6329    228.34    228.66    -20.69     20.00
   18.6431    230.99    228.86    -18.23     20.00
   18.6532    231.60    228.92    -17.69     20.00
   18.6634    231.69    228.87    -17.54     20.00
   18.6736    233.23    228.68    -15.82     20.00
   18.6837    229.25    228.38    -19.49     20.00
   18.6939    230.03    227.95    -18.28     20.00
   18.7040    232.14    227.41    -15.63     20.00
   18.7142    230.46    226.74    -16.65     20.00
   18.7244    226.79    225.97    -19.55     20.00
   18.7345    228.52    225.10    -16.94     20.00
   18.7447    226.48    224.12    -18.00     20.00
   18.7549    226.62    223.04    -16.78     20.00
   18.7650    226.26    221.88    -15.99     20.00
   18.7752    224.95    220.63    -16.04     20.00
   18.7854    224.00    219.29    -15.66     20.00
   18.7955    219.96    217.90    -18.31     20.00
   18.8057    218.02    216.43    -18.77     20.00
   18.8159    214.89    214.89    -20.37     20.00
   18.8260    215.48    213.32    -18.21     20.00
   18.8362    215.22    211.68    -16.83     20.00
   18.8463    210.32    210.02    -20.06     20.00
   18.8565    210.41    208.30    -18.25     20.00
   18.8667    207.59    206.54    -19.32     20.00
   18.8768    203.38    204.78    -21.77     20.00
   18.8870    202.62    202.98    -20.73     20.00
   18.8972    202.27    201.16    -19.26     20.00
   18.9073    198.84    199.35    -20.88     20.00
   18.9175    195.69    197.51    -22.19     20.00
   18.9277    195.80    195.66    -20.23     20.00
   18.9378    192.96    193.84    -21.24     20.00
   18.9480    190.63    191.99    -21.73     20.00
   18.9582    189.59    190.16    -20.93     20.00
   18.9683    186.38    188.35    -22.33     20.00
   18.9785    183.40    186.53    -23.50     20.00
   18.9887    184.25    184.73    -20.84     20.00
   18.9988    179.83    182.96    -23.50     20.00
   19.0090    178.04    181.20    -23.52     20.00
   19.0191    177.38    179.47    -22.46     20.00
   19.0293    176.24    177.75    -21.88     20.00
   19.0395    176.31    176.06    -20.11     20.00
   19.0496    173.04    174.40    -21.73     20.00
   19.0598    168.09    172.77    -25.04     20.00
   19.0700    170.09    171.16    -21.43     20.00
   19.0801    169.33    169.59    -20.63     20.00
   19.0903    167.58    168.04    -20.83     20.00
   19.1005    164.33    166.53    -22.56     20.00
   19.1106    162.89    165.06    -22.54     20.00
   19.1208    162.11    163.61    -21.87     20.00
   19.1310    161.35    162.20    -21.22     20.00
   19.1411    157.05    160.84    -24.15     20.00
   19.1513    158.77    159.49    -21.09     20.00
   19.1614    158.57    158.20    -20.00     20.00
   19.1716    155.62    156.93    -21.67     20.00
   19.1818    152.76    155.69    -23.30     20.00
   19.1919    155.85    154.50    -19.02     20.00
   19.2021    153.95    153.34    -19.76     20.00
   19.2123    150.78    152.21    -21.80     20.00
   19.2224    150.18    151.13    -21.32     20.00
   19.2326    148.31    150.07    -22.13     20.00
   19.2428    146.74    149.05    -22.67     20.00
   19.2529    147.45    148.07    -20.98     20.00
   19.2631    147.68    147.11    -19.80     20.00
   19.2733    146.33    146.19    -20.23     20.00
   19.2834    143.87    145.31    -21.81     20.00
   19.2936    144.28    144.45    -20.54     20.00
   19.3038    142.10    143.63    -21.89     20.00
   19.3139    142.48    142.84    -20.73     20.00
   19.3241    140.58    142.08    -21.86     20.00
   19.3342    139.39    141.35    -22.33     20.00
   19.3444    141.18    140.64    -19.83     20.00
   19.3546    138.41    139.97    -21.92     20.00
   19.3647    137.90    139.32    -21.79     20.00
   19.3749    140.20    138.70    -18.86     20.00
   19.3851    139.37    138.10    -19.09     20.00
   19.3952    136.91    137.53    -20.99     20.00
   19.4054    136.56    136.98    -20.79     20.00
   19.4156    134.62    136.45    -22.20     20.00
   19.4257    135.16    135.95    -21.16     20.00
   19.4359    134.72    135.47    -21.12     20.00
   19.4461    134.48    135.01    -20.90     20.00
   19.4562    134.21    134.57    -20.73     20.00
   19.4664    134.53    134.15    -19.99     20.00
   19.4765    134.79    133.75    -19.33     20.00
   19.4867    132.57    133.37    -21.16     20.00
   19.4969    132.34    133.00    -21.02     20.00
   19.5070    131.67    132.65    -21.35     20.00
   19.5172    132.46    132.31    -20.22     20.00
   19.5274    130.04    131.99    -22.32     20.00
   19.5375    131.01    131.69    -21.04     20.00
   19.5477    130.33    131.39    -21.43     20.00
   19.5579    130.26    131.11    -21.22     20.00
   19.5680    130.68    130.85    -20.54     20.00
   19.5782    129.51    130.59    -21.45     20.00
   19.5884    129.91    130.35    -20.81     20.00
   19.5985    128.65    130.12    -21.83     20.00
   19.6087    127.18    129.89    -23.08     20.00
   19.6188    129.40    129.68    -20.65     20.00
   19.6290    128.88    129.48    -20.96     20.00
   19.6392    127.95    129.28    -21.70     20.00
   19.6493    127.90    129.10    -21.56     20.00
   19.6595    127.94    128.92    -21.34     20.00
   19.6697    126.41    128.74    -22.70     20.00
   19.6798    128.39    128.58    -20.56     20.00
   19.6900    128.88    128.42    -19.91     20.00
   19.7002    126.04    128.27    -22.59     20.00
   19.7103    127.73    128.12    -20.76     20.00
   19.7205    128.07    127.98    -20.28     20.00
   19.7307    126.54    127.85    -21.67     20.00
   19.7408    126.30    127.72    -21.79     20.00
   19.7510    126.73    127.60    -21.23     20.00
   19.7612    125.42    127.48    -22.42     20.00
   19.7713    127.35    127.36    -20.38     20.00
   19.7815    126.55    127.25    -21.07     20.00
   19.7916    125.89    127.14    -21.62     20.00
   19.8018    124.82    127.04    -22.59     20.00
   19.8120    126.01    126.94    -21.30     20.00
   19.8221    124.37    126.85    -22.84     20.00
   19.8323    126.15    126.75    -20.97     20.00
   19.8425    123.84    126.66    -23.19     20.00
   19.8526    124.92    126.58    -22.03     20.00
   19.8628    125.46    126.50    -21.40     20.00
   19.8730    123.01    126.42    -23.78     20.00
   19.8831    123.09    126.34    -23.62     20.00
   19.8933    124.24    126.27    -22.40     20.00
   19.9035    126.47    126.20    -20.10     20.00
   19.9136    123.43    126.14    -23.07     20.00
   19.9238    125.56    126.08    -20.88     20.00
   19.9339    124.63    126.02    -21.75     20.00
   19.9441    123.93    125.96    -22.40     20.00
   19.9543    125.45    125.91    -20.83     20.00
   19.9644    126.06    125.87    -20.17     20.00
   19.9746    124.47    125.82    -21.72     20.00
   19.9848    125.82    125.78    -20.33     20.00
   19.9949    127.29    125.75    -18.82     20.00
   20.0051    124.24    125.72    -21.84     20.00
   20.0153    126.02    125.69    -20.04     20.00
   20.0254    125.48    125.67    -20.56     20.00
   20.0356    123.74    125.65    -22.28     20.00
   20.0458    127.20    125.64    -18.81     20.00
   20.0559    124.93    125.64    -21.08     20.00
   20.0661    124.84    125.64    -21.17     20.00
   20.0763    127.41    125.65    -18.60     20.00
   20.0864    125.48    125.66    -20.55     20.00
   20.0966    126.46    125.68    -19.59     20.00
   20.1067    126.13    125.71    -19.95     20.00
   20.1169    127.15    125.75    -18.97     20.00
   20.1271    126.01    125.80    -20.15     20.00
   20.1372    126.71    125.85    -19.50     20.00
   20.1474    127.04    125.91    -19.24     20.00
   20.1576    125.64    125.98    -20.71     20.00
   20.1677    128.49    126.06    -17.94     20.00
   20.1779    127.32    126.15    -19.20     20.00
   20.1881    125.77    126.25    -20.85     20.00
   20.1982    126.88    126.36    -19.85     20.00
   20.2084    127.03    126.48    -19.82     20.00
   20.2186    127.59    126.61    -19.39     20.00
   20.2287    127.73    126.75    -19.39     20.00
   20.2389    127.61    126.90    -19.66     20.00
   20.2490    127.28    127.07    -20.15     20.00
   20.2592    129.15    127.24    -18.46     20.00
   20.2694    129.95    127.42    -17.84     20.00
   20.2795    129.11    127.62    -18.87     20.00
   20.2897    130.24    127.82    -17.95     20.00
   20.2999    129.74    128.04    -18.67     20.00
   20.3100    129.18    128.26    -19.45     20.00
   20.3202    130.77    128.50    -18.09     20.00
   20.3304    130.99    128.74    -18.12     20.00
   20.3405    129.25    128.99    -20.11     20.00
   20.3507    130.31    129.25    -19.31     20.00
   20.3609    129.12    129.52    -20.76     20.00
   20.3710    131.27    129.79    -18.88     20.00
   20.3812    131.61    130.06    -18.82     20.00
   20.3914    131.18    130.34    -19.53     20.00
   20.4015    130.51    130.62    -20.47     20.00
   20.4117    130.08    130.90    -21.18     20.00
   20.4218    131.29    131.17    -20.25     20.00
   20.4320    133.54    131.45    -18.27     20.00
   20.4422    131.25    131.72    -20.83     20.00
   20.4523    132.55    131.98    -19.79     20.00
   20.4625    129.99    132.23    -22.60     20.00
   20.4727    132.03    132.46    -20.80     20.00
   20.4828    130.82    132.68    -22.23     20.00
   20.4930    133.47    132.88    -19.78     20.00
   20.5032    131.68    133.07    -21.75     20.00
   20.5133    132.16    133.22    -21.43     20.00
   20.5235    130.39    133.35    -23.33     20.00
   20.5337    131.91    133.45    -21.91     20.00
   20.5438    132.88    133.52    -21.01     20.00
   20.5540    131.79    133.56    -22.13     20.00
   20.5641    134.02    133.56    -19.90     20.00
   20.5743    132.66    133.52    -21.23     20.00
   20.5845    132.22    133.45    -21.60     20.00
   20.5946    132.82    133.34    -20.89     20.00
   20.6048    134.24    133.20    -19.32     20.00
   20.6150    131.56    133.01    -21.82     20.00
   20.6251    132.94    132.80    -20.23     20.00
   20.6353    131.88    132.55    -21.04     20.00
   20.6455    130.92    132.27    -21.72     20.00
   20.6556    132.11    131.97    -20.23     20.00
   20.6658    132.20    131.64    -19.80     20.00
   20.6760    130.45    131.28    -21.20     20.00
   20.6861    133.32    130.91    -17.96     20.00
   20.6963    130.85    130.52    -20.03     20.00
   20.7065    129.89    130.11    -20.59     20.00
   20.7166    130.88    129.70    -19.18     20.00
   20.7268    130.12    129.27    -19.52     20.00
   20.7369    130.16    128.84    -19.05     20.00
   20.7471    130.50    128.40    -18.27     20.00
   20.7573    129.56    127.96    -18.77     20.00
   20.7674    126.43    127.53    -21.46     20.00
   20.7776    129.88    127.09    -17.57     20.00
   20.7878    129.90    126.65    -17.12     20.00
   20.7979    128.38    126.22    -18.21     20.00
   20.8081    127.83    125.79    -18.33     20.00
   20.8183    126.05    125.37    -19.69     20.00
   20.8284    125.47    124.96    -19.86     20.00
   20.8386    125.41    124.55    -19.51     20.00
   20.8488    125.60    124.16    -18.92     20.00
   20.8589    124.91    123.77    -19.23     20.00
   20.8691    124.54    123.40    -19.22     20.00
   20.8792    124.52    123.03    -18.88     20.00
   20.8894    124.02    122.67    -19.02     20.00
   20.8996    123.85    122.33    -18.85     20.00
   20.9097    123.59    122.00    -18.77     20.00
   20.9199    121.02    121.68    -21.02     20.00
   20.9301    123.48    121.36    -18.25     20.00
   20.9402    123.41    121.07    -18.02     20.00
   20.9504    120.38    120.78    -20.76     20.00
   20.9606    121.16    120.50    -19.71     20.00
   20.9707    119.70    120.24    -20.90     20.00
   20.9809    120.07    119.98    -20.28     20.00
   20.9911    121.06    119.74    -19.04     20.00
   21.0012    119.16    119.51    -20.71     20.00
   21.0114    120.45    119.28    -19.20     20.00
   21.0216    119.33    119.07    -20.11     20.00
   21.0317    119.91    118.87    -19.33     20.00
   21.0419    118.22    118.68    -20.82     20.00
   21.0520    118.85    118.49    -20.01     20.00
   21.0622    116.65    118.32    -22.03     20.00
   21.0724    117.79    118.15    -20.73     20.00
   21.0825    116.69    117.99    -21.67     20.00
   21.0927    117.20    117.84    -21.01     20.00
   21.1029    116.82    117.70    -21.25     20.00
   21.1130    115.96    117.57    -21.97     20.00
   21.1232    115.79    117.44    -22.02     20.00
   21.1334    116.38    117.32    -21.31     20.00
   21.1435    115.74    117.21    -21.83     20.00
   21.1537    114.78    117.10    -22.69     20.00
   21.1639    113.25    117.00    -24.12     20.00
   21.1740    114.01    116.91    -23.26     20.00
   21.1842    110.93    116.82    -26.25     20.00
   21.1943    112.43    116.74    -24.67     20.00
   21.2045    112.85    116.66    -24.17     20.00
   21.2147    113.80    116.59    -23.15     20.00
   21.2248    112.76    116.52    -24.13     20.00
   21.2350    113.80    116.46    -23.03     20.00
   21.2452    113.95    116.41    -22.82     20.00
   21.2553    111.23    116.36    -25.49     20.00
   21.2655    113.11    116.31    -23.57     20.00
   21.2757    113.05    116.27    -23.59     20.00
   21.2858    112.15    116.24    -24.46     20.00
   21.2960    112.37    116.21    -24.21     20.00
   21.3062    111.89    116.19    -24.66     20.00
   21.3163    109.59    116.17    -26.94     20.00
   21.3265    111.99    116.15    -24.53     20.00
   21.3366    111.77    116.15    -24.74     20.00
   21.3468    109.30    116.14    -27.21     20.00
   21.3570    111.51    116.15    -25.00     20.00
   21.3671    111.72    116.16    -24.80     20.00
   21.3773    108.60    116.17    -27.94     20.00
   21.3875    112.27    116.19    -24.29     20.00
   21.3976    110.88    116.22    -25.70     20.00
   21.4078    109.99    116.25    -26.62     20.00
   21.4180    112.79    116.29    -23.86     20.00
   21.4281    109.88    116.33    -26.82     20.00
   21.4383    110.55    116.38    -26.20     20.00
   21.4485    111.95    116.44    -24.85     20.00
   21.4586    109.48    116.50    -27.39     20.00
   21.4688    109.96    116.57    -26.98     20.00
   21.4790    109.91    116.65    -27.10     20.00
   21.4891    110.63    116.73    -26.46     20.00
   21.4993    111.03    116.82    -26.16     20.00
   21.5094    110.09    116.92    -27.19     20.00
   21.5196    111.82    117.02    -25.57     20.00
   21.5298    109.74    117.13    -27.76     20.00
   21.5399    111.01    117.25    -26.61     20.00
   21.5501    110.05    117.38    -27.70     20.00
   21.5603    112.22    117.52    -25.66     20.00
   21.5704    112.44    117.66    -25.58     20.00
   21.5806    112.02    117.81    -26.16     20.00
   21.5908    110.19    117.97    -28.15     20.00
   21.6009    113.49    118.14    -25.01     20.00
   21.6111    112.93    118.31    -25.75     20.00
   21.6213    112.52    118.50    -26.34     20.00
   21.6314    114.18    118.69    -24.88     20.00
   21.6416    114.12    118.89    -25.14     20.00
   21.6517    113.81    119.10    -25.66     20.00
   21.6619    113.83    119.32    -25.86     20.00
   21.6721    115.34    119.55    -24.58     20.00
   21.6822    113.95    119.79    -26.20     20.00
   21.6924    116.76    120.04    -23.64     20.00
   21.7026    115.40    120.29    -25.26     20.00
   21.7127    117.10    120.56    -23.82     20.00
   21.7229    117.61    120.83    -23.59     20.00
   21.7331    118.40    121.12    -23.08     20.00
   21.7432    118.79    121.41    -22.98     20.00
   21.7534    119.26    121.71    -22.82     20.00
   21.7636    119.76    122.02    -22.63     20.00
   21.7737    119.46    122.34    -23.25     20.00
   21.7839    122.37    122.67    -20.67     20.00
   21.7941    123.88    123.01    -19.50     20.00
   21.8042    123.42    123.36    -20.31     20.00
   21.8144    123.44    123.72    -20.65     20.00
   21.8245    127.70    124.08    -16.75     20.00
   21.8347    125.71    124.46    -19.12     20.00
   21.8449    127.74    124.85    -17.47     20.00
   21.8550    128.65    125.24    -16.96     20.00
   21.8652    129.78    125.64    -16.23     20.00
   21.8754    130.16    126.06    -16.26     20.00
   21.8855    130.98    126.47    -15.86     20.00
   21.8957    130.42    126.90    -16.85     20.00
   21.9059    132.96    127.34    -14.75     20.00
   21.9160    132.95    127.78    -15.20     20.00
   21.9262    133.85    128.23    -14.75     20.00
   21.9364    134.67    128.69    -14.39     20.00
   21.9465    136.57    129.16    -12.95     20.00
   21.9567    135.20    129.63    -14.80     20.00
   21.9668    137.09    130.10    -13.38     20.00
   21.9770    137.33    130.59    -13.63     20.00
   21.9872    136.61    131.08    -14.84     20.00
   21.9973    139.10    131.58    -12.84     20.00
   22.0075    137.90    132.08    -14.55     20.00
   22.0177    138.33    132.59    -14.62     20.00
   22.0278    140.85    133.09    -12.61     20.00
   22.0380    141.12    133.61    -12.86     20.00
   22.0482    138.60    134.13    -15.89     20.00
   22.0583    139.91    134.64    -15.10     20.00
   22.0685    140.99    135.17    -14.54     20.00
   22.0787    138.42    135.69    -17.64     20.00
   22.0888    141.21    136.21    -15.37     20.00
   22.0990    142.98    136.74    -14.12     20.00
   22.1092    139.12    137.26    -18.51     20.00
   22.1193    143.66    137.78    -14.49     20.00
   22.1295    142.78    138.30    -15.89     20.00
   22.1396    142.37    138.82    -16.81     20.00
   22.1498    142.76    139.33    -16.94     20.00
   22.1600    143.85    139.84    -16.36     20.00
   22.1701    142.38    140.34    -18.33     20.00
   22.1803    141.58    140.84    -19.63     20.00
   22.1905    141.98    141.33    -19.72     20.00
   22.2006    142.22    141.81    -19.96     20.00
   22.2108    141.85    142.29    -20.80     20.00
   22.2210    143.12    142.75    -20.00     20.00
   22.2311    143.85    143.20    -19.72     20.00
   22.2413    143.73    143.64    -20.28     20.00
   22.2515    144.90    144.07    -19.53     20.00
   22.2616    144.27    144.48    -20.57     20.00
   22.2718    146.45    144.87    -18.79     20.00
   22.2819    146.20    145.25    -19.42     20.00
   22.2921    143.65    145.61    -22.33     20.00
   22.3023    146.20    145.96    -20.12     20.00
   22.3124    147.54    146.28    -19.10     20.00
   22.3226    145.60    146.58    -21.34     20.00
   22.3328    147.63    146.86    -19.59     20.00
   22.3429    146.72    147.11    -20.75     20.00
   22.3531    145.63    147.34    -22.07     20.00
   22.3633    146.66    147.54    -21.25     20.00
   22.3734    145.30    147.72    -22.79     20.00
   22.3836    149.16    147.87    -19.08     20.00
   22.3938    147.75    147.99    -20.61     20.00
   22.4039    146.42    148.09    -22.03     20.00
   22.4141    147.52    148.15    -21.00     20.00
   22.4243    147.99    148.18    -20.56     20.00
   22.4344    148.48    148.19    -20.07     20.00
   22.4446    143.65    148.16    -24.87     20.00
   22.4547    146.66    148.10    -21.80     20.00
   22.4649    147.46    148.00    -20.91     20.00
   22.4751    144.26    147.88    -23.98     20.00
   22.4852    148.01    147.72    -20.08     20.00
   22.4954    145.29    147.53    -22.61     20.00
   22.5056    144.07    147.31    -23.60     20.00
   22.5157    146.05    147.05    -21.37     20.00
   22.5259    145.07    146.77    -22.06     20.00
   22.5361    143.80    146.45    -23.01     20.00
   22.5462    144.98    146.10    -21.49     20.00
   22.5564    143.65    145.72    -22.44     20.00
   22.5666    142.44    145.31    -23.24     20.00
   22.5767    142.16    144.88    -23.08     20.00
   22.5869    142.25    144.41    -22.53     20.00
   22.5970    139.70    143.92    -24.59     20.00
   22.6072    142.09    143.40    -21.67     20.00
   22.6174    139.88    142.85    -23.34     20.00
   22.6275    137.90    142.29    -24.75     20.00
   22.6377    140.61    141.69    -21.45     20.00
   22.6479    140.85    141.07    -20.59     20.00
   22.6580    137.49    140.44    -23.32     20.00
   22.6682    137.04    139.78    -23.11     20.00
   22.6784    138.89    139.10    -20.58     20.00
   22.6885    134.72    138.41    -24.06     20.00
   22.6987    136.22    137.70    -21.84     20.00
   22.7089    136.39    136.97    -20.95     20.00
   22.7190    134.73    136.23    -21.87     20.00
   22.7292    135.66    135.48    -20.18     20.00
   22.7394    135.43    134.71    -19.64     20.00
   22.7495    132.37    133.93    -21.93     20.00
   22.7597    131.13    133.14    -22.38     20.00
   22.7698    130.96    132.35    -21.76     20.00
   22.7800    130.28    131.54    -21.63     20.00
   22.7902    129.61    130.73    -21.48     20.00
   22.8003    127.95    129.91    -22.33     20.00
   22.8105    125.63    129.09    -23.82     20.00
   22.8207    126.27    128.25    -22.35     20.00
   22.8308    127.01    127.43    -20.78     20.00
   22.8410    126.18    126.59    -20.78     20.00
   22.8512    125.15    125.75    -20.97     20.00
   22.8613    124.64    124.92    -20.64     20.00
   22.8715    122.47    124.08    -21.97     20.00
   22.8817    122.05    123.24    -21.55     20.00
   22.8918    122.35    122.40    -20.42     20.00
   22.9020    120.48    121.57    -21.45     20.00
   22.9121    119.77    120.74    -21.33     20.00
   22.9223    120.53    119.91    -19.74     20.00
   22.9325    118.21    119.08    -21.23     20.00
   22.9426    118.97    118.26    -19.65     20.00
   22.9528    119.65    117.44    -18.15     20.00
   22.9630    116.68    116.62    -20.30     20.00
   22.9731    117.30    115.81    -18.88     20.00
   22.9833    115.37    115.01    -20.00     20.00
   22.9935    114.66    114.21    -19.91     20.00
   23.0036    115.13    113.42    -18.66     20.00
   23.0138    114.57    112.63    -18.43     20.00
   23.0240    112.22    111.85    -20.00     20.00
   23.0341    115.04    111.09    -16.41     20.00
   23.0443    111.16    110.32    -19.53     20.00
   23.0545    110.08    109.57    -19.85     20.00
   23.0646    110.88    108.82    -18.31     20.00
   23.0748    109.99    108.08    -18.46     20.00
   23.0849    108.70    107.36    -19.02     20.00
   23.0951    108.08    106.63    -18.92     20.00
   23.1053    108.13    105.92    -18.15     20.00
   23.1154    107.30    105.22    -18.28     20.00
   23.1256    108.24    104.52    -16.65     20.00
   23.1358    105.82    103.83    -18.38     20.00
   23.1459    105.41    103.16    -18.12     20.00
   23.1561    104.99    102.49    -17.87     20.00
   23.1663    103.32    101.83    -18.88     20.00
   23.1764    102.97    101.19    -18.58     20.00
   23.1866    102.65    100.55    -18.26     20.00
   23.1968    101.24     99.92    -19.04     20.00
   23.2069    102.85     99.30    -16.82     20.00
   23.2171    100.58     98.69    -18.47     20.00
   23.2272     98.60     98.09    -19.86     20.00
   23.2374     99.07     97.50    -18.79     20.00
   23.2476     99.54     96.92    -17.74     20.00
   23.2577    100.21     96.35    -16.50     20.00
   23.2679     95.89     95.78    -20.26     20.00
   23.2781     98.06     95.23    -17.53     20.00
   23.2882     97.27     94.69    -17.78     20.00
   23.2984     96.17     94.15    -18.35     20.00
   23.3086     96.16     93.63    -17.83     20.00
   23.3187     96.15     93.11    -17.33     20.00
   23.3289     93.66     92.61    -19.31     20.00
   23.3391     95.54     92.11    -16.93     20.00
   23.3492     93.98     91.62    -18.01     20.00
   23.3594     92.72     91.14    -18.78     20.00
   23.3695     94.51     90.67    -16.53     20.00
   23.3797     92.17     90.21    -18.40     20.00
   23.3899     92.66     89.75    -17.46     20.00
   23.4000     91.08     89.31    -18.59     20.00
   23.4102     91.98     88.87    -17.25     20.00
   23.4204     89.63     88.44    -19.17     20.00
   23.4305     90.19     88.02    -18.19     20.00
   23.4407     89.09     87.60    -18.88     20.00
   23.4509     87.85     87.19    -19.71     20.00
   23.4610     87.93     86.80    -19.23     20.00
   23.4712     86.91     86.40    -19.86     20.00
   23.4814     88.05     86.02    -18.33     20.00
   23.4915     88.74     85.64    -17.27     20.00
   23.5017     85.37     85.27    -20.27     20.00
   23.5119     85.57     84.90    -19.70     20.00
   23.5220     87.13     84.55    -17.78     20.00
   23.5322     84.24     84.20    -20.32     20.00
   23.5423     83.60     83.85    -20.62     20.00
   23.5525     85.45     83.51    -18.43     20.00
   23.5627     83.29     83.18    -20.26     20.00
   23.5728     83.53     82.86    -19.69     20.00
   23.5830     83.44     82.53    -19.46     20.00
   23.5932     83.48     82.22    -19.10     20.00
   23.6033     83.87     81.91    -18.41     20.00
   23.6135     81.77     81.60    -20.20     20.00
   23.6237     82.73     81.30    -18.94     20.00
   23.6338     80.29     81.01    -21.09     20.00
   23.6440     81.10     80.72    -19.99     20.00
   23.6542     80.73     80.44    -20.07     20.00
   23.6643     81.52     80.16    -19.00     20.00
   23.6745     80.19     79.88    -20.06     20.00
   23.6846     79.23     79.61    -20.75     20.00
   23.6948     78.73     79.34    -20.98     20.00
   23.7050     78.65     79.08    -20.79     20.00
   23.7151     77.72     78.82    -21.47     20.00
   23.7253     79.51     78.56    -19.42     20.00
   23.7355     78.01     78.31    -20.67     20.00
   23.7456     76.60     78.06    -21.83     20.00
   23.7558     76.62     77.82    -21.57     20.00
   23.7660     76.91     77.58    -21.03     20.00
   23.7761     77.32     77.34    -20.39     20.00
   23.7863     76.21     77.11    -21.26     20.00
   23.7965     76.93     76.87    -20.31     20.00
   23.8066     74.98     76.65    -22.03     20.00
   23.8168     75.89     76.42    -20.90     20.00
   23.8270     76.28     76.20    -20.28     20.00
   23.8371     74.87     75.98    -21.47     20.00
   23.8473     75.56     75.76    -20.56     20.00
   23.8574     75.20     75.54    -20.71     20.00
   23.8676     73.58     75.33    -22.12     20.00
   23.8778     73.77     75.12    -21.72     20.00
   23.8879     73.70     74.91    -21.58     20.00
   23.8981     72.71     74.71    -22.36     20.00
   23.9083     73.92     74.50    -20.95     20.00
   23.9184     73.13     74.30    -21.54     20.00
   23.9286     72.68     74.10    -21.79     20.00
   23.9388     71.65     73.90    -22.62     20.00
   23.9489     72.40     73.71    -21.67     20.00
   23.9591     70.98     73.51    -22.90     20.00
   23.9693     72.73     73.32    -20.96     20.00
   23.9794     70.24     73.13    -23.26     20.00
   23.9896     72.60     72.94    -20.71     20.00
   23.9997     70.35     72.76    -22.77     20.00
   24.0099     71.29     72.57    -21.65     20.00
   24.0201     70.10     72.39    -22.65     20.00
   24.0302     70.69     72.20    -21.88     20.00
   24.0404     71.07     72.02    -21.32     20.00
   24.0506     68.68     71.84    -23.53     20.00
   24.0607     68.90     71.66    -23.13     20.00
   24.0709     70.82     71.49    -21.03     20.00
   24.0811     68.80     71.31    -22.88     20.00
   24.0912     69.73     71.14    -21.77     20.00
   24.1014     68.68     70.96    -22.65     20.00
   24.1116     68.74     70.79    -22.41     20.00
   24.1217     67.38     70.62    -23.60     20.00
   24.1319     68.02     70.45    -22.79     20.00
   24.1421     67.71     70.28    -22.93     20.00
   24.1522     67.98     70.11    -22.50     20.00
   24.1624     68.08     69.94    -22.23     20.00
   24.1725     66.93     69.78    -23.21     20.00
   24.1827     66.53     69.61    -23.45     20.00
   24.1929     67.49     69.45    -22.32     20.00
   24.2030     66.87     69.28    -22.78     20.00
   24.2132     65.49     69.12    -24.00     20.00
   24.2234     65.91     68.96    -23.42     20.00
   24.2335     67.37     68.80    -21.80     20.00
   24.2437     65.40     68.64    -23.61     20.00
   24.2539     65.57     68.48    -23.28     20.00
   24.2640     65.35     68.32    -23.34     20.00
   24.2742     65.03     68.16    -23.50     20.00
   24.2844     66.33     68.01    -22.04     20.00
   24.2945     66.21     67.85    -22.01     20.00
   24.3047     65.58     67.70    -22.48     20.00
   24.3148     65.66     67.54    -22.25     20.00
   24.3250     64.96     67.39    -22.80     20.00
   24.3352     65.61     67.24    -21.99     20.00
   24.3453     65.32     67.08    -22.13     20.00
   24.3555     65.47     66.93    -21.83     20.00
   24.3657     65.21     66.78    -21.94     20.00
   24.3758     64.40     66.63    -22.60     20.00
   24.3860     63.07     66.48    -23.78     20.00
   24.3962     64.52     66.33    -22.18     20.00
   24.4063     62.62     66.19    -23.93     20.00
   24.4165     63.49     66.04    -22.91     20.00
   24.4267     64.51     65.89    -21.75     20.00
   24.4368     63.11     65.74    -23.00     20.00
   24.4470     62.65     65.60    -23.31     20.00
   24.4572     63.66     65.45    -22.16     20.00
   24.4673     62.38     65.31    -23.29     20.00
   24.4775     62.56     65.16    -22.97     20.00
   24.4876     63.18     65.02    -22.21     20.00
   24.4978     62.50     64.88    -22.74     20.00
   24.5080     62.41     64.74    -22.69     20.00
   24.5181     62.07     64.59    -22.89     20.00
   24.5283     62.30     64.45    -22.52     20.00
   24.5385     62.05     64.31    -22.63     20.00
   24.5486     61.86     64.17    -22.68     20.00
   24.5588     61.76     64.03    -22.64     20.00
   24.5690     61.12     63.89    -23.14     20.00
   24.5791     60.12     63.76    -24.00     20.00
   24.5893     61.46     63.62    -22.52     20.00
   24.5995     60.87     63.48    -22.98     20.00
   24.6096     61.70     63.34    -22.01     20.00
   24.6198     61.21     63.21    -22.36     20.00
   24.6299     61.32     63.07    -22.12     20.00
   24.6401     59.82     62.94    -23.48     20.00
   24.6503     61.68     62.80    -21.49     20.00
   24.6604     60.88     62.67    -22.15     20.00
   24.6706     60.78     62.53    -22.12     20.00
   24.6808     61.53     62.40    -21.24     20.00
   24.6909     60.33     62.27    -22.30     20.00
   24.7011     60.65     62.14    -21.85     20.00
   24.7113     60.56     62.00    -21.81     20.00
   24.7214     59.46     61.87    -22.78     20.00
   24.7316     59.21     61.74    -22.90     20.00
   24.7418     59.30     61.61    -22.68     20.00
   24.7519     59.34     61.48    -22.51     20.00
   24.7621     59.70     61.35    -22.02     20.00
   24.7723     59.93     61.22    -21.66     20.00
   24.7824     59.98     61.10    -21.48     20.00
   24.7926     57.87     60.97    -23.46     20.00
   24.8027     59.65     60.84    -21.56     20.00
   24.8129     58.54     60.71    -22.54     20.00
   24.8231     59.20     60.59    -21.75     20.00
   24.8332     58.27     60.46    -22.56     20.00
   24.8434     60.49     60.34    -20.21     20.00
   24.8536     59.11     60.21    -21.47     20.00
   24.8637     59.04     60.09    -21.41     20.00
   24.8739     59.42     59.96    -20.91     20.00
   24.8841     58.96     59.84    -21.24     20.00
   24.8942     59.25     59.72    -20.83     20.00
   24.9044     59.04     59.59    -20.92     20.00
   24.9146     58.94     59.47    -20.90     20.00
   24.9247     58.26     59.35    -21.45     20.00
   24.9349     57.46     59.23    -22.13     20.00
   24.9450     58.46     59.11    -21.01     20.00
   24.9552     58.07     58.99    -21.28     20.00
   24.9654     58.46     58.86    -20.77     20.00
   24.9755     56.29     58.75    -22.82     20.00
   24.9857     58.73     58.63    -20.26     20.00
   24.9959     57.30     58.51    -21.57     20.00
   25.0060     56.88     58.39    -21.88     20.00
   25.0162     56.63     58.27    -22.01     20.00
   25.0264     57.30     58.15    -21.22     20.00
   25.0365     57.77     58.04    -20.63     20.00
   25.0467     58.22     57.92    -20.07     20.00
   25.0569     57.65     57.80    -20.52     20.00
   25.0670     57.20     57.69    -20.86     20.00
   25.0772     56.84     57.57    -21.10     20.00
   25.0874     57.57     57.46    -20.25     20.00
   25.0975     56.52     57.35    -21.19     20.00
   25.1077     57.01     57.23    -20.59     20.00
   25.1178     56.91     57.12    -20.57     20.00
   25.1280     55.75     57.00    -21.62     20.00
   25.1382     56.90     56.89    -20.36     20.00
   25.1483     56.93     56.78    -20.22     20.00
   25.1585     56.46     56.67    -20.57     20.00
   25.1687     56.49     56.56    -20.43     20.00
   25.1788     55.59     56.45    -21.22     20.00
   25.1890     56.99     56.34    -19.71     20.00
   25.1992     55.89     56.23    -20.70     20.00
   25.2093     56.84     56.12    -19.64     20.00
   25.2195     56.24     56.01    -20.13     20.00
   25.2297     55.40     55.90    -20.86     20.00
   25.2398     54.83     55.79    -21.33     20.00
   25.2500     55.73     55.68    -20.32     20.00
   25.2601     55.82     55.58    -20.12     20.00
   25.2703     55.95     55.47    -19.88     20.00
   25.2805     55.57     55.36    -20.16     20.00
   25.2906     54.76     55.26    -20.86     20.00
   25.3008     55.83     55.15    -19.69     20.00
   25.3110     55.65     55.04    -19.76     20.00
   25.3211     55.87     54.94    -19.44     20.00
   25.3313     55.08     54.83    -20.12     20.00
   25.3415     54.68     54.73    -20.42     20.00
   25.3516     56.30     54.63    -18.69     20.00
   25.3618     54.32     54.52    -20.57     20.00
   25.3720     56.24     54.42    -18.55     20.00
   25.3821     55.95     54.32    -18.74     20.00
   25.3923     55.02     54.22    -19.56     20.00
   25.4024     53.93     54.12    -20.55     20.00
   25.4126     55.20     54.01    -19.18     20.00
   25.4228     54.57     53.91    -19.71     20.00
   25.4329     54.87     53.81    -19.31     20.00
   25.4431     55.38     53.71    -18.70     20.00
   25.4533     55.36     53.61    -18.62     20.00
   25.4634     54.70     53.52    -19.18     20.00
   25.4736     55.79     53.42    -17.99     20.00
   25.4838     54.91     53.32    -18.78     20.00
   25.4939     53.62     53.22    -19.97     20.00
   25.5041     53.79     53.12    -19.70     20.00
   25.5143     54.32     53.03    -19.07     20.00
   25.5244     54.60     52.93    -18.70     20.00
   25.5346     53.76     52.84    -19.44     20.00
   25.5448     54.21     52.74    -18.90     20.00
   25.5549     52.30     52.65    -20.71     20.00
   25.5651     53.28     52.55    -19.64     20.00
   25.5752     54.15     52.46    -18.67     20.00
   25.5854     53.55     52.36    -19.18     20.00
   25.5956     53.13     52.27    -19.51     20.00
   25.6057     54.12     52.18    -18.42     20.00
   25.6159     53.83     52.09    -18.62     20.00
   25.6261     53.43     51.99    -18.93     20.00
   25.6362     53.55     51.90    -18.72     20.00
   25.6464     53.51     51.81    -18.67     20.00
   25.6566     54.43     51.72    -17.66     20.00
   25.6667     53.09     51.63    -18.91     20.00
   25.6769     53.58     51.54    -18.33     20.00
   25.6871     53.82     51.45    -18.00     20.00
   25.6972     53.21     51.36    -18.52     20.00
   25.7074     53.30     51.27    -18.34     20.00
   25.7175     53.33     51.19    -18.22     20.00
   25.7277     52.29     51.10    -19.18     20.00
   25.7379     52.95     51.01    -18.43     20.00
   25.7480     52.84     50.93    -18.45     20.00
   25.7582     53.28     50.84    -17.93     20.00
   25.7684     52.43     50.76    -18.69     20.00
   25.7785     52.41     50.67    -18.63     20.00
   25.7887     53.85     50.59    -17.10     20.00
   25.7989     52.70     50.50    -18.17     20.00
   25.8090     53.05     50.42    -17.74     20.00
   25.8192     52.76     50.34    -17.94     20.00
   25.8294     52.51     50.25    -18.11     20.00
   25.8395     52.16     50.17    -18.38     20.00
   25.8497     52.55     50.09    -17.91     20.00
   25.8599     52.80     50.01    -17.57     20.00
   25.8700     52.00     49.93    -18.29     20.00
   25.8802     52.76     49.85    -17.45     20.00
   25.8903     52.93     49.77    -17.21     20.00
   25.9005     52.35     49.69    -17.71     20.00
   25.9107     53.35     49.61    -16.63     20.00
   25.9208     52.21     49.53    -17.69     20.00
   25.9310     51.14     49.46    -18.68     20.00
   25.9412     52.62     49.38    -17.13     20.00
   25.9513     52.54     49.30    -17.13     20.00
   25.9615     52.13     49.23    -17.46     20.00
   25.9717     51.02     49.15    -18.50     20.00
   25.9818     51.04     49.08    -18.40     20.00
   25.9920     52.29     49.00    -17.08     20.00
   26.0022     51.96     48.93    -17.34     20.00
   26.0123     50.35     48.86    -18.87     20.00
   26.0225     52.01     48.79    -17.14     20.00
   26.0326     52.56     48.71    -16.52     20.00
   26.0428     51.79     48.64    -17.22     20.00
   26.0530     51.59     48.57    -17.35     20.00
   26.0631     51.57     48.50    -17.30     20.00
   26.0733     51.03     48.43    -17.77     20.00
   26.0835     51.88     48.36    -16.85     20.00
   26.0936     50.23     48.30    -18.43     20.00
   26.1038     51.88     48.23    -16.71     20.00
   26.1140     50.80     48.16    -17.73     20.00
   26.1241     50.61     48.09    -17.85     20.00
   26.1343     51.35     48.03    -17.04     20.00
   26.1445     51.01     47.96    -17.32     20.00
   26.1546     51.56     47.90    -16.71     20.00
   26.1648     49.40     47.84    -18.80     20.00
   26.1750     51.60     47.77    -16.54     20.00
   26.1851     50.82     47.71    -17.26     20.00
   26.1953     50.64     47.65    -17.37     20.00
   26.2054     50.91     47.59    -17.04     20.00
   26.2156     51.37     47.53    -16.52     20.00
   26.2258     50.15     47.47    -17.68     20.00
   26.2359     50.92     47.41    -16.85     20.00
   26.2461     51.20     47.35    -16.52     20.00
   26.2563     51.07     47.29    -16.59     20.00
   26.2664     50.71     47.24    -16.89     20.00
   26.2766     50.45     47.18    -17.10     20.00
   26.2868     50.66     47.12    -16.83     20.00
   26.2969     50.02     47.07    -17.42     20.00
   26.3071     51.24     47.02    -16.14     20.00
   26.3173     49.79     46.96    -17.54     20.00
   26.3274     50.31     46.91    -16.97     20.00
   26.3376     49.03     46.86    -18.20     20.00
   26.3477     49.71     46.81    -17.47     20.00
   26.3579     50.09     46.76    -17.04     20.00
   26.3681     49.46     46.71    -17.62     20.00
   26.3782     50.66     46.66    -16.37     20.00
   26.3884     50.74     46.62    -16.24     20.00
   26.3986     49.70     46.57    -17.24     20.00
   26.4087     50.07     46.53    -16.82     20.00
   26.4189     50.60     46.48    -16.25     20.00
   26.4291     49.22     46.44    -17.58     20.00
   26.4392     49.78     46.39    -16.98     20.00
   26.4494     49.85     46.35    -16.87     20.00
   26.4596     49.81     46.31    -16.87     20.00
   26.4697     49.97     46.27    -16.67     20.00
   26.4799     50.28     46.23    -16.32     20.00
   26.4901     48.98     46.20    -17.58     20.00
   26.5002     49.19     46.16    -17.33     20.00
   26.5104     49.32     46.12    -17.17     20.00
   26.5205     48.38     46.09    -18.07     20.00
   26.5307     48.91     46.05    -17.51     20.00
   26.5409     48.99     46.02    -17.40     20.00
   26.5510     49.66     45.99    -16.70     20.00
   26.5612     49.25     45.96    -17.07     20.00
   26.5714     49.64     45.93    -16.65     20.00
   26.5815     49.05     45.90    -17.22     20.00
   26.5917     48.97     45.87    -17.27     20.00
   26.6019     48.07     45.85    -18.14     20.00
   26.6120     50.38     45.82    -15.81     20.00
   26.6222     48.58     45.80    -17.58     20.00
   26.6324     48.48     45.77    -17.66     20.00
   26.6425     48.51     45.75    -17.61     20.00
   26.6527     48.16     45.73    -17.94     20.00
   26.6628     49.26     45.71    -16.82     20.00
   26.6730     47.88     45.69    -18.18     20.00
   26.6832     48.05     45.68    -17.99     20.00
   26.6933     48.75     45.66    -17.28     20.00
   26.7035     47.95     45.65    -18.06     20.00
   26.7137     48.47     45.63    -17.53     20.00
   26.7238     48.43     45.62    -17.56     20.00
   26.7340     48.60     45.61    -17.38     20.00
   26.7442     48.59     45.60    -17.38     20.00
   26.7543     47.85     45.59    -18.11     20.00
   26.7645     49.10     45.59    -16.85     20.00
   26.7747     49.26     45.58    -16.69     20.00
   26.7848     47.77     45.58    -18.17     20.00
   26.7950     48.85     45.58    -17.09     20.00
   26.8052     48.88     45.57    -17.06     20.00
   26.8153     48.53     45.57    -17.41     20.00
   26.8255     48.53     45.58    -17.41     20.00
   26.8356     48.05     45.58    -17.90     20.00
   26.8458     47.91     45.58    -18.04     20.00
   26.8560     48.54     45.59    -17.42     20.00
   26.8661     48.38     45.60    -17.58     20.00
   26.8763     46.59     45.61    -19.38     20.00
   26.8865     48.63     45.62    -17.35     20.00
   26.8966     47.65     45.63    -18.35     20.00
   26.9068     48.57     45.64    -17.44     20.00
   26.9170     47.28     45.66    -18.74     20.00
   26.9271     48.49     45.67    -17.55     20.00
   26.9373     46.77     45.69    -19.29     20.00
   26.9475     48.23     45.71    -17.85     20.00
   26.9576     48.09     45.73    -18.01     20.00
   26.9678     48.93     45.76    -17.19     20.00
   26.9779     47.48     45.78    -18.67     20.00
   26.9881     47.80     45.81    -18.37     20.00
   26.9983     47.93     45.84    -18.27     20.00
   27.0084     47.54     45.87    -18.69     20.00
   27.0186     47.71     45.90    -18.55     20.00
   27.0288     47.02     45.93    -19.28     20.00
   27.0389     46.73     45.96    -19.60     20.00
   27.0491     47.42     46.00    -18.95     20.00
   27.0593     47.69     46.04    -18.71     20.00
   27.0694     47.44     46.08    -19.00     20.00
   27.0796     47.84     46.12    -18.65     20.00
   27.0898     46.63     46.16    -19.90     20.00
   27.0999     48.10     46.21    -18.47     20.00
   27.1101     48.73     46.25    -17.89     20.00
   27.1202     47.43     46.30    -19.24     20.00
   27.1304     47.61     46.35    -19.11     20.00
   27.1406     46.92     46.40    -19.85     20.00
   27.1507     46.82     46.46    -20.00     20.00
   27.1609     48.32     46.51    -18.56     20.00
   27.1711     46.27     46.57    -20.67     20.00
   27.1812     47.15     46.63    -19.85     20.00
   27.1914     48.16     46.69    -18.90     20.00
   27.2016     47.66     46.75    -19.46     20.00
   27.2117     48.73     46.82    -18.45     20.00
   27.2219     47.94     46.88    -19.31     20.00
   27.2321     47.68     46.95    -19.64     20.00
   27.2422     47.32     47.02    -20.07     20.00
   27.2524     47.77     47.09    -19.69     20.00
   27.2626     47.05     47.17    -20.48     20.00
   27.2727     47.00     47.24    -20.61     20.00
   27.2829     47.67     47.32    -20.02     20.00
   27.2930     47.05     47.40    -20.72     20.00
   27.3032     47.35     47.48    -20.50     20.00
   27.3134     46.93     47.56    -21.00     20.00
   27.3235     47.67     47.65    -20.34     20.00
   27.3337     48.18     47.73    -19.92     20.00
   27.3439     48.63     47.82    -19.56     20.00
   27.3540     48.30     47.91    -19.98     20.00
   27.3642     47.32     48.00    -21.05     20.00
   27.3744     48.24     48.10    -20.22     20.00
   27.3845     47.63     48.19    -20.93     20.00
   27.3947     47.55     48.29    -21.10     20.00
   27.4049     48.29     48.39    -20.46     20.00
   27.4150     47.79     48.49    -21.06     20.00
   27.4252     48.15     48.59    -20.80     20.00
   27.4353     48.31     48.69    -20.75     20.00
   27.4455     48.07     48.80    -21.09     20.00
   27.4557     48.45     48.91    -20.82     20.00
   27.4658     47.36     49.01    -22.02     20.00
   27.4760     46.82     49.12    -22.67     20.00
   27.4862     48.64     49.24    -20.96     20.00
   27.4963     48.46     49.35    -21.26     20.00
   27.5065     47.99     49.47    -21.84     20.00
   27.5167     48.23     49.58    -21.72     20.00
   27.5268     48.54     49.70    -21.53     20.00
   27.5370     47.85     49.82    -22.34     20.00
   27.5472     47.98     49.94    -22.33     20.00
   27.5573     48.18     50.07    -22.25     20.00
   27.5675     48.74     50.19    -21.82     20.00
   27.5777     48.80     50.32    -21.88     20.00
   27.5878     48.37     50.44    -22.44     20.00
   27.5980     48.96     50.57    -21.98     20.00
   27.6081     48.44     50.70    -22.63     20.00
   27.6183     48.90     50.83    -22.30     20.00
   27.6285     48.29     50.97    -23.04     20.00
   27.6386     49.24     51.10    -22.23     20.00
   27.6488     47.87     51.24    -23.73     20.00
   27.6590     48.67     51.37    -23.07     20.00
   27.6691     49.48     51.51    -22.39     20.00
   27.6793     49.15     51.65    -22.86     20.00
   27.6895     49.73     51.79    -22.42     20.00
   27.6996     49.48     51.93    -22.81     20.00
   27.7098     49.01     52.07    -23.43     20.00
   27.7200     49.26     52.21    -23.32     20.00
   27.7301     50.49     52.36    -22.23     20.00
   27.7403     50.32     52.50    -22.55     20.00
   27.7504     50.39     52.64    -22.62     20.00
   27.7606     50.10     52.79    -23.06     20.00
   27.7708     50.18     52.94    -23.12     20.00
   27.7809     50.04     53.08    -23.41     20.00
   27.7911     50.96     53.23    -22.64     20.00
   27.8013     51.75     53.38    -22.00     20.00
   27.8114     50.97     53.53    -22.92     20.00
   27.8216     50.90     53.68    -23.14     20.00
   27.8318     50.89     53.83    -23.30     20.00
   27.8419     51.15     53.98    -23.19     20.00
   27.8521     51.46     54.13    -23.03     20.00
   27.8623     52.35     54.28    -22.29     20.00
   27.8724     51.74     54.43    -23.05     20.00
   27.8826     52.54     54.58    -22.40     20.00
   27.8928     51.85     54.73    -23.24     20.00
   27.9029     51.93     54.88    -23.31     20.00
   27.9131     52.04     55.03    -23.35     20.00
   27.9232     53.52     55.17    -22.02     20.00
   27.9334     53.31     55.32    -22.38     20.00
   27.9436     53.83     55.47    -22.01     20.00
   27.9537     53.51     55.62    -22.47     20.00
   27.9639     53.74     55.77    -22.39     20.00
   27.9741     53.18     55.91    -23.10     20.00
   27.9842     53.45     56.06    -22.97     20.00
   27.9944     52.90     56.20    -23.67     20.00
   28.0046     53.73     56.35    -22.98     20.00
   28.0147     53.90     56.49    -22.95     20.00
   28.0249     55.21     56.63    -21.78     20.00
   28.0351     55.74     56.77    -21.39     20.00
   28.0452     54.90     56.90    -22.37     20.00
   28.0554     55.98     57.04    -21.43     20.00
   28.0655     55.12     57.18    -22.42     20.00
   28.0757     55.21     57.31    -22.47     20.00
   28.0859     55.21     57.44    -22.60     20.00
   28.0960     56.16     57.57    -21.78     20.00
   28.1062     56.23     57.70    -21.83     20.00
   28.1164     55.82     57.82    -22.37     20.00
   28.1265     56.37     57.95    -21.94     20.00
   28.1367     56.72     58.07    -21.71     20.00
   28.1469     57.27     58.18    -21.28     20.00
   28.1570     56.70     58.30    -21.96     20.00
   28.1672     57.33     58.41    -21.45     20.00
   28.1774     57.88     58.52    -21.01     20.00
   28.1875     57.74     58.63    -21.25     20.00
   28.1977     58.04     58.73    -21.06     20.00
   28.2079     58.61     58.83    -20.59     20.00
   28.2180     58.90     58.93    -20.40     20.00
   28.2282     58.52     59.03    -20.87     20.00
   28.2383     60.55     59.12    -18.93     20.00
   28.2485     59.33     59.20    -20.24     20.00
   28.2587     60.04     59.29    -19.61     20.00
   28.2688     61.14     59.37    -18.59     20.00
   28.2790     59.37     59.44    -20.44     20.00
   28.2892     60.55     59.52    -19.33     20.00
   28.2993     60.71     59.59    -19.24     20.00
   28.3095     60.89     59.65    -19.13     20.00
   28.3197     61.26     59.71    -18.82     20.00
   28.3298     61.73     59.77    -18.40     20.00
   28.3400     62.79     59.82    -17.39     20.00
   28.3502     61.57     59.87    -18.66     20.00
   28.3603     61.87     59.91    -18.41     20.00
   28.3705     61.65     59.95    -18.67     20.00
   28.3806     61.49     59.98    -18.86     20.00
   28.3908     63.28     60.01    -17.10     20.00
   28.4010     61.94     60.04    -18.47     20.00
   28.4111     63.18     60.06    -17.25     20.00
   28.4213     62.35     60.08    -18.09     20.00
   28.4315     62.39     60.09    -18.06     20.00
   28.4416     60.57     60.10    -19.89     20.00
   28.4518     63.23     60.10    -17.23     20.00
   28.4620     63.09     60.10    -17.37     20.00
   28.4721     62.49     60.09    -17.96     20.00
   28.4823     63.50     60.08    -16.94     20.00
   28.4925     65.29     60.06    -15.14     20.00
   28.5026     62.80     60.04    -17.61     20.00
   28.5128     62.65     60.01    -17.73     20.00
   28.5230     62.70     59.98    -17.65     20.00
   28.5331     62.55     59.95    -17.76     20.00
   28.5433     61.69     59.91    -18.59     20.00
   28.5534     61.26     59.87    -18.97     20.00
   28.5636     62.66     59.82    -17.52     20.00
   28.5738     62.56     59.76    -17.57     20.00
   28.5839     61.75     59.71    -18.32     20.00
   28.5941     61.09     59.65    -18.92     20.00
   28.6043     62.36     59.58    -17.59     20.00
   28.6144     61.84     59.51    -18.04     20.00
   28.6246     61.65     59.44    -18.15     20.00
   28.6348     61.71     59.36    -18.01     20.00
   28.6449     61.93     59.28    -17.71     20.00
   28.6551     60.52     59.19    -19.04     20.00
   28.6653     61.88     59.10    -17.59     20.00
   28.6754     61.09     59.01    -18.28     20.00
   28.6856     60.52     58.91    -18.76     20.00
   28.6957     59.95     58.81    -19.23     20.00
   28.7059     60.80     58.71    -18.27     20.00
   28.7161     60.28     58.60    -18.69     20.00
   28.7262     60.26     58.49    -18.60     20.00
   28.7364     60.30     58.38    -18.44     20.00
   28.7466     60.20     58.26    -18.43     20.00
   28.7567     60.60     58.14    -17.91     20.00
   28.7669     59.62     58.02    -18.76     20.00
   28.7771     58.88     57.89    -19.38     20.00
   28.7872     60.09     57.77    -18.04     20.00
   28.7974     58.33     57.63    -19.67     20.00
   28.8076     58.96     57.50    -18.91     20.00
   28.8177     59.17     57.37    -18.56     20.00
   28.8279     57.70     57.23    -19.90     20.00
   28.8381     58.04     57.09    -19.42     20.00
   28.8482     58.88     56.95    -18.43     20.00
   28.8584     58.13     56.80    -19.04     20.00
   28.8685     57.46     56.66    -19.57     20.00
   28.8787     57.99     56.51    -18.89     20.00
   28.8889     57.35     56.36    -19.38     20.00
   28.8990     56.70     56.21    -19.88     20.00
   28.9092     57.12     56.06    -19.31     20.00
   28.9194     55.38     55.91    -20.89     20.00
   28.9295     55.08     55.76    -21.04     20.00
   28.9397     55.98     55.60    -19.99     20.00
   28.9499     55.30     55.44    -20.51     20.00
   28.9600     54.44     55.29    -21.21     20.00
   28.9702     54.93     55.13    -20.56     20.00
   28.9804     54.34     54.97    -20.99     20.00
   28.9905     55.11     54.81    -20.06     20.00
   29.0007     56.37     54.65    -18.64     20.00
   29.0108     54.57     54.49    -20.28     20.00
   29.0210     54.27     54.33    -20.42     20.00
   29.0312     53.15     54.16    -21.38     20.00
   29.0413     52.35     54.00    -22.02     20.00
   29.0515     53.87     53.84    -20.33     20.00
   29.0617     53.85     53.67    -20.19     20.00
   29.0718     53.20     53.51    -20.68     20.00
   29.0820     53.44     53.35    -20.27     20.00
   29.0922     52.84     53.19    -20.71     20.00
   29.1023     52.82     53.02    -20.57     20.00
   29.1125     52.54     52.86    -20.69     20.00
   29.1227     52.34     52.70    -20.72     20.00
   29.1328     51.14     52.53    -21.76     20.00
   29.1430     51.21     52.37    -21.53     20.00
   29.1531     50.43     52.21    -22.15     20.00
   29.1633     50.51     52.05    -21.90     20.00
   29.1735     51.06     51.89    -21.19     20.00
   29.1836     50.74     51.73    -21.35     20.00
   29.1938     50.13     51.57    -21.80     20.00
   29.2040     50.15     51.41    -21.62     20.00
   29.2141     49.27     51.25    -22.34     20.00
   29.2243     49.27     51.09    -22.18     20.00
   29.2345     49.55     50.93    -21.75     20.00
   29.2446     49.30     50.77    -21.84     20.00
   29.2548     49.88     50.62    -21.10     20.00
   29.2650     48.35     50.46    -22.48     20.00
   29.2751     49.88     50.31    -20.79     20.00
   29.2853     48.60     50.15    -21.92     20.00
   29.2955     47.87     50.00    -22.49     20.00
   29.3056     49.85     49.85    -20.36     20.00
   29.3158     47.41     49.69    -22.65     20.00
   29.3259     47.82     49.54    -22.09     20.00
   29.3361     48.82     49.39    -20.94     20.00
   29.3463     46.87     49.24    -22.74     20.00
   29.3564     48.56     49.10    -20.90     20.00
   29.3666     48.10     48.95    -21.22     20.00
   29.3768     46.53     48.80    -22.64     20.00
   29.3869     46.69     48.66    -22.34     20.00
   29.3971     46.90     48.52    -21.98     20.00
   29.4073     46.16     48.37    -22.58     20.00
   29.4174     47.52     48.23    -21.08     20.00
   29.4276     46.71     48.09    -21.75     20.00
   29.4378     46.37     47.95    -21.95     20.00
   29.4479     46.31     47.81    -21.87     20.00
   29.4581     46.15     47.68    -21.89     20.00
   29.4682     45.87     47.54    -22.04     20.00
   29.4784     45.81     47.40    -21.96     20.00
   29.4886     45.24     47.27    -22.40     20.00
   29.4987     45.49     47.14    -22.01     20.00
   29.5089     46.09     47.01    -21.28     20.00
   29.5191     44.15     46.87    -23.09     20.00
   29.5292     45.03     46.75    -22.08     20.00
   29.5394     45.57     46.62    -21.41     20.00
   29.5496     44.99     46.49    -21.86     20.00
   29.5597     44.29     46.36    -22.44     20.00
   29.5699     44.90     46.24    -21.70     20.00
   29.5801     44.98     46.11    -21.50     20.00
   29.5902     45.19     45.99    -21.17     20.00
   29.6004     44.88     45.87    -21.35     20.00
   29.6106     44.35     45.75    -21.76     20.00
   29.6207     43.76     45.63    -22.23     20.00
   29.6309     45.24     45.51    -20.63     20.00
   29.6410     44.47     45.39    -21.29     20.00
   29.6512     44.80     45.27    -20.84     20.00
   29.6614     43.59     45.16    -21.93     20.00
   29.6715     45.46     45.04    -19.95     20.00
   29.6817     43.19     44.93    -22.11     20.00
   29.6919     43.84     44.82    -21.34     20.00
   29.7020     43.64     44.71    -21.43     20.00
   29.7122     43.52     44.59    -21.44     20.00
   29.7224     42.97     44.48    -21.88     20.00
   29.7325     43.51     44.38    -21.23     20.00
   29.7427     43.58     44.27    -21.05     20.00
   29.7529     43.99     44.16    -20.54     20.00
   29.7630     43.86     44.05    -20.56     20.00
   29.7732     43.52     43.95    -20.79     20.00
   29.7833     42.51     43.84    -21.70     20.00
   29.7935     42.60     43.74    -21.51     20.00
   29.8037     42.27     43.64    -21.73     20.00
   29.8138     43.55     43.54    -20.35     20.00
   29.8240     43.78     43.43    -20.02     20.00
   29.8342     43.34     43.33    -20.36     20.00
   29.8443     42.99     43.23    -20.61     20.00
   29.8545     43.45     43.13    -20.05     20.00
   29.8647     42.65     43.04    -20.75     20.00
   29.8748     42.30     42.94    -21.00     20.00
   29.8850     43.51     42.84    -19.70     20.00
   29.8952     41.73     42.74    -21.38     20.00
   29.9053     42.40     42.65    -20.62     20.00
   29.9155     41.75     42.55    -21.17     20.00
   29.9257     42.56     42.46    -20.27     20.00
   29.9358     42.64     42.37    -20.09     20.00
   29.9460     41.43     42.27    -21.21     20.00
   29.9561     41.54     42.18    -21.01     20.00
   29.9663     42.04     42.09    -20.42     20.00
   29.9765     42.26     42.00    -20.10     20.00
   29.9866     41.96     41.91    -20.31     20.00
   29.9968     42.18     41.82    -20.00     20.00
   30.0070     42.40     41.73    -19.69     20.00
   30.0171     41.90     41.64    -20.10     20.00
   30.0273     42.32     41.55    -19.59     20.00
   30.0375     41.07     41.46    -20.76     20.00
   30.0476     40.72     41.37    -21.02     20.00
   30.0578     41.56     41.28    -20.09     20.00
   30.0680     41.53     41.20    -20.03     20.00
   30.0781     41.48     41.11    -20.00     20.00
   30.0883     40.66     41.02    -20.73     20.00
   30.0984     41.52     40.94    -19.79     20.00
   30.1086     40.99     40.85    -20.23     20.00
   30.1188     41.41     40.77    -19.72     20.00
   30.1289     41.50     40.68    -19.55     20.00
   30.1391     40.04     40.60    -20.93     20.00
   30.1493     41.40     40.51    -19.48     20.00
   30.1594     41.04     40.43    -19.76     20.00
   30.1696     41.24     40.35    -19.47     20.00
   30.1798     40.32     40.26    -20.31     20.00
   30.1899     40.73     40.18    -19.82     20.00
   30.2001     40.68     40.10    -19.79     20.00
   30.2103     39.35     40.02    -21.03     20.00
   30.2204     39.98     39.94    -20.32     20.00
   30.2306     38.72     39.85    -21.50     20.00
   30.2408     40.47     39.77    -19.67     20.00
   30.2509     40.07     39.69    -19.99     20.00
   30.2611     40.39     39.61    -19.59     20.00
   30.2712     39.35     39.53    -20.55     20.00
   30.2814     39.60     39.45    -20.22     20.00
   30.2916     39.97     39.37    -19.77     20.00
   30.3017     40.10     39.29    -19.56     20.00
   30.3119     39.20     39.21    -20.38     20.00
   30.3221     38.85     39.13    -20.65     20.00
   30.3322     38.63     39.05    -20.79     20.00
   30.3424     38.41     38.97    -20.93     20.00
   30.3526     39.56     38.90    -19.70     20.00
   30.3627     39.05     38.82    -20.13     20.00
   30.3729     38.39     38.74    -20.72     20.00
   30.3831     38.76     38.66    -20.27     20.00
   30.3932     38.60     38.58    -20.35     20.00
   30.4034     37.71     38.51    -21.16     20.00
   30.4135     38.59     38.43    -20.21     20.00
   30.4237     37.89     38.35    -20.83     20.00
   30.4339     38.29     38.28    -20.35     20.00
   30.4440     38.10     38.20    -20.47     20.00
   30.4542     38.63     38.12    -19.86     20.00
   30.4644     38.20     38.05    -20.21     20.00
   30.4745     37.30     37.97    -21.04     20.00
   30.4847     38.91     37.90    -19.35     20.00
   30.4949     38.82     37.82    -19.37     20.00
   30.5050     37.68     37.75    -20.43     20.00
   30.5152     38.04     37.67    -20.00     20.00
   30.5254     37.46     37.60    -20.50     20.00
   30.5355     36.65     37.52    -21.24     20.00
   30.5457     37.70     37.45    -20.11     20.00
   30.5559     37.20     37.38    -20.54     20.00
   30.5660     37.15     37.30    -20.52     20.00
   30.5762     38.01     37.23    -19.58     20.00
   30.5863     37.48     37.16    -20.04     20.00
   30.5965     36.32     37.08    -21.13     20.00
   30.6067     35.41     37.01    -21.97     20.00
   30.6168     37.05     36.94    -20.25     20.00
   30.6270     35.85     36.87    -21.38     20.00
   30.6372     36.66     36.79    -20.50     20.00
   30.6473     36.99     36.72    -20.10     20.00
   30.6575     36.55     36.65    -20.47     20.00
   30.6677     35.98     36.58    -20.97     20.00
   30.6778     36.80     36.51    -20.08     20.00
   30.6880     36.59     36.44    -20.22     20.00
   30.6982     36.10     36.37    -20.64     20.00
   30.7083     35.43     36.30    -21.24     20.00
   30.7185     36.53     36.23    -20.07     20.00
   30.7286     35.60     36.16    -20.93     20.00
   30.7388     35.70     36.10    -20.76     20.00
   30.7490     35.59     36.03    -20.80     20.00
   30.7591     36.07     35.96    -20.26     20.00
   30.7693     34.83     35.89    -21.43     20.00
   30.7795     35.57     35.82    -20.62     20.00
   30.7896     35.74     35.76    -20.38     20.00
   30.7998     35.81     35.69    -20.25     20.00
   30.8100     35.19     35.62    -20.80     20.00
   30.8201     34.96     35.56    -20.96     20.00
   30.8303     35.49     35.49    -20.37     20.00
   30.8405     34.52     35.43    -21.27     20.00
   30.8506     35.09     35.36    -20.64     20.00
   30.8608     34.60     35.30    -21.06     20.00
   30.8710     35.10     35.23    -20.50     20.00
   30.8811     35.21     35.17    -20.33     20.00
   30.8913     35.22     35.11    -20.25     20.00
   30.9014     35.09     35.04    -20.32     20.00
   30.9116     35.12     34.98    -20.23     20.00
   30.9218     34.57     34.92    -20.71     20.00
   30.9319     35.20     34.86    -20.02     20.00
   30.9421     35.13     34.79    -20.03     20.00
   30.9523     34.49     34.73    -20.61     20.00
   30.9624     34.76     34.67    -20.28     20.00
   30.9726     35.29     34.61    -19.69     20.00
   30.9828     34.45     34.55    -20.47     20.00
   30.9929     34.16     34.49    -20.70     20.00
   31.0031     35.77     34.43    -19.03     20.00
   31.0133     34.74     34.37    -20.00     20.00
   31.0234     34.20     34.32    -20.48     20.00
   31.0336     34.45     34.26    -20.17     20.00
   31.0437     33.70     34.20    -20.87     20.00
   31.0539     33.99     34.14    -20.52     20.00
   31.0641     34.35     34.09    -20.10     20.00
   31.0742     34.68     34.03    -19.72     20.00
   31.0844     34.47     33.98    -19.87     20.00
   31.0946     34.21     33.92    -20.08     20.00
   31.1047     34.57     33.86    -19.66     20.00
   31.1149     33.88     33.81    -20.30     20.00
   31.1251     34.26     33.76    -19.86     20.00
   31.1352     34.34     33.70    -19.73     20.00
   31.1454     33.74     33.65    -20.28     20.00
   31.1556     33.51     33.60    -20.45     20.00
   31.1657     33.78     33.54    -20.13     20.00
   31.1759     32.90     33.49    -20.96     20.00
   31.1860     32.79     33.44    -21.02     20.00
   31.1962     33.15     33.39    -20.61     20.00
   31.2064     33.29     33.34    -20.42     20.00
   31.2165     34.13     33.29    -19.53     20.00
   31.2267     34.44     33.24    -19.17     20.00
   31.2369     33.36     33.19    -20.20     20.00
   31.2470     33.69     33.14    -19.82     20.00
   31.2572     33.52     33.09    -19.94     20.00
   31.2674     33.66     33.05    -19.75     20.00
   31.2775     33.28     33.00    -20.09     20.00
   31.2877     33.63     32.95    -19.69     20.00
   31.2979     33.68     32.91    -19.59     20.00
   31.3080     32.49     32.86    -20.74     20.00
   31.3182     32.99     32.81    -20.19     20.00
   31.3284     33.85     32.77    -19.29     20.00
   31.3385     31.96     32.73    -21.13     20.00
   31.3487     33.88     32.68    -19.17     20.00
   31.3588     33.29     32.64    -19.71     20.00
   31.3690     32.71     32.60    -20.25     20.00
   31.3792     33.19     32.55    -19.73     20.00
   31.3893     33.65     32.51    -19.23     20.00
   31.3995     32.40     32.47    -20.44     20.00
   31.4097     34.01     32.43    -18.78     20.00
   31.4198     32.96     32.39    -19.79     20.00
   31.4300     33.67     32.35    -19.04     20.00
   31.4402     33.09     32.31    -19.59     20.00
   31.4503     32.44     32.27    -20.20     20.00
   31.4605     32.35     32.23    -20.25     20.00
   31.4707     33.41     32.19    -19.15     20.00
   31.4808     33.52     32.16    -19.00     20.00
   31.4910     33.44     32.12    -19.05     20.00
   31.5011     32.02     32.08    -20.43     20.00
   31.5113     31.91     32.05    -20.50     20.00
   31.5215     31.86     32.01    -20.52     20.00
   31.5316     33.28     31.98    -19.06     20.00
   31.5418     32.15     31.94    -20.16     20.00
   31.5520     32.97     31.91    -19.30     20.00
   31.5621     32.91     31.88    -19.33     20.00
   31.5723     32.91     31.84    -19.30     20.00
   31.5825     32.60     31.81    -19.58     20.00
   31.5926     33.05     31.78    -19.09     20.00
   31.6028     32.54     31.75    -19.57     20.00
   31.6130     32.71     31.72    -19.37     20.00
   31.6231     32.39     31.69    -19.66     20.00
   31.6333     31.62     31.66    -20.40     20.00
   31.6435     31.85     31.63    -20.14     20.00
   31.6536     32.32     31.60    -19.64     20.00
   31.6638     32.02     31.57    -19.92     20.00
   31.6739     32.10     31.54    -19.81     20.00
   31.6841     33.01     31.51    -18.87     20.00
   31.6943     32.68     31.49    -19.17     20.00
   31.7044     33.30     31.46    -18.53     20.00
   31.7146     31.64     31.44    -20.16     20.00
   31.7248     32.79     31.41    -18.99     20.00
   31.7349     32.59     31.39    -19.16     20.00
   31.7451     32.55     31.36    -19.18     20.00
   31.7553     31.91     31.34    -19.79     20.00
   31.7654     32.44     31.31    -19.24     20.00
   31.7756     32.29     31.29    -19.37     20.00
   31.7858     31.44     31.27    -20.19     20.00
   31.7959     31.90     31.25    -19.71     20.00
   31.8061     32.38     31.23    -19.21     20.00
   31.8162     31.73     31.20    -19.84     20.00
   31.8264     32.34     31.18    -19.21     20.00
   31.8366     33.13     31.16    -18.40     20.00
   31.8467     32.22     31.15    -19.29     20.00
   31.8569     32.04     31.13    -19.45     20.00
   31.8671     31.29     31.11    -20.18     20.00
   31.8772     32.13     31.09    -19.33     20.00
   31.8874     31.89     31.07    -19.55     20.00
   31.8976     32.43     31.05    -18.99     20.00
   31.9077     31.71     31.04    -19.69     20.00
   31.9179     32.36     31.02    -19.03     20.00
   31.9281     32.29     31.01    -19.08     20.00
   31.9382     31.83     30.99    -19.53     20.00
   31.9484     31.89     30.98    -19.45     20.00
   31.9586     31.86     30.96    -19.47     20.00
   31.9687     31.76     30.95    -19.55     20.00
   31.9789     32.78     30.94    -18.52     20.00
   31.9890     31.54     30.92    -19.75     20.00
   31.9992     31.15     30.91    -20.13     20.00
   32.0094     31.80     30.90    -19.46     20.00
   32.0195     31.88     30.89    -19.37     20.00
   32.0297     32.05     30.88    -19.19     20.00
   32.0399     32.39     30.86    -18.84     20.00
   32.0500     32.02     30.85    -19.20     20.00
   32.0602     32.21     30.84    -19.00     20.00
   32.0704     31.65     30.84    -19.55     20.00
   32.0805     32.02     30.83    -19.17     20.00
   32.0907     31.84     30.82    -19.34     20.00
   32.1009     32.09     30.81    -19.09     20.00
   32.1110     31.84     30.80    -19.33     20.00
   32.1212     31.98     30.79    -19.18     20.00
   32.1313     31.99     30.79    -19.16     20.00
   32.1415     31.81     30.78    -19.34     20.00
   32.1517     31.44     30.77    -19.70     20.00
   32.1618     31.43     30.77    -19.70     20.00
   32.1720     31.57     30.76    -19.56     20.00
   32.1822     31.65     30.76    -19.47     20.00
   32.1923     31.66     30.75    -19.46     20.00
   32.2025     31.88     30.75    -19.24     20.00
   32.2127     31.73     30.75    -19.38     20.00
   32.2228     31.32     30.74    -19.79     20.00
   32.2330     31.74     30.74    -19.37     20.00
   32.2432     31.53     30.74    -19.57     20.00
   32.2533     31.32     30.73    -19.78     20.00
   32.2635     31.59     30.73    -19.51     20.00
   32.2737     31.08     30.73    -20.02     20.00
   32.2838     31.14     30.73    -19.95     20.00
   32.2940     31.76     30.73    -19.33     20.00
   32.3041     31.54     30.73    -19.55     20.00
   32.3143     32.33     30.73    -18.76     20.00
   32.3245     32.57     30.73    -18.52     20.00
   32.3346     31.32     30.73    -19.77     20.00
   32.3448     31.36     30.73    -19.73     20.00
   32.3550     32.84     30.73    -18.25     20.00
   32.3651     31.59     30.73    -19.50     20.00
   32.3753     31.41     30.73    -19.69     20.00
   32.3855     32.27     30.73    -18.83     20.00
   32.3956     31.89     30.73    -19.21     20.00
   32.4058     31.80     30.73    -19.30     20.00
   32.4160     32.50     30.74    -18.60     20.00
   32.4261     32.17     30.74    -18.94     20.00
   32.4363     31.20     30.74    -19.91     20.00
   32.4464     31.57     30.75    -19.54     20.00
   32.4566     32.13     30.75    -18.98     20.00
   32.4668     31.48     30.75    -19.64     20.00
   32.4769     31.98     30.76    -19.14     20.00
   32.4871     31.93     30.76    -19.20     20.00
   32.4973     31.85     30.76    -19.28     20.00
   32.5074     31.23     30.77    -19.90     20.00
   32.5176     30.64     30.77    -20.50     20.00
   32.5278     32.26     30.78    -18.88     20.00
   32.5379     31.19     30.78    -19.96     20.00
   32.5481     30.85     30.79    -20.30     20.00
   32.5583     32.07     30.79    -19.09     20.00
   32.5684     31.59     30.80    -19.57     20.00
   32.5786     31.34     30.80    -19.83     20.00
   32.5888     31.54     30.81    -19.64     20.00
   32.5989     31.30     30.82    -19.88     20.00
   32.6091     31.29     30.82    -19.90     20.00
   32.6192     31.46     30.83    -19.73     20.00
   32.6294     31.73     30.83    -19.47     20.00
   32.6396     30.93     30.84    -20.28     20.00
   32.6497     31.11     30.85    -20.10     20.00
   32.6599     31.55     30.85    -19.67     20.00
   32.6701     31.35     30.86    -19.87     20.00
   32.6802     31.36     30.86    -19.87     20.00
   32.6904     31.23     30.87    -20.01     20.00
   32.7006     30.68     30.88    -20.56     20.00
   32.7107     31.66     30.88    -19.59     20.00
   32.7209     31.92     30.89    -19.34     20.00
   32.7311     31.21     30.90    -20.05     20.00
   32.7412     31.74     30.90    -19.53     20.00
   32.7514     32.35     30.91    -18.93     20.00
   32.7615     32.13     30.92    -19.15     20.00
   32.7717     30.97     30.92    -20.32     20.00
   32.7819     31.80     30.93    -19.50     20.00
   32.7920     30.52     30.94    -20.78     20.00
   32.8022     30.97     30.94    -20.34     20.00
   32.8124     32.16     30.95    -19.15     20.00
   32.8225     30.71     30.95    -20.61     20.00
   32.8327     31.20     30.96    -20.13     20.00
   32.8429     30.93     30.97    -20.40     20.00
   32.8530     30.87     30.97    -20.47     20.00
   32.8632     31.41     30.98    -19.93     20.00
   32.8734     32.18     30.98    -19.17     20.00
   32.8835     30.70     30.99    -20.66     20.00
   32.8937     31.20     30.99    -20.16     20.00
   32.9039     31.43     31.00    -19.94     20.00
   32.9140     31.14     31.01    -20.23     20.00
   32.9242     31.09     31.01    -20.29     20.00
   32.9343     31.15     31.01    -20.23     20.00
   32.9445     31.31     31.02    -20.08     20.00
   32.9547     30.32     31.02    -21.07     20.00
   32.9648     31.32     31.03    -20.07     20.00
   32.9750     31.68     31.03    -19.72     20.00
   32.9852     32.09     31.03    -19.31     20.00
   32.9953     31.95     31.04    -19.45     20.00
   33.0055     30.71     31.04    -20.70     20.00
   33.0157     31.93     31.04    -19.48     20.00
   33.0258     31.78     31.05    -19.63     20.00
   33.0360     30.93     31.05    -20.48     20.00
   33.0462     31.18     31.05    -20.24     20.00
   33.0563     32.02     31.05    -19.40     20.00
   33.0665     32.31     31.05    -19.11     20.00
   33.0766     31.52     31.05    -19.90     20.00
   33.0868     31.98     31.05    -19.44     20.00
   33.0970     31.87     31.06    -19.55     20.00
   33.1071     31.92     31.06    -19.50     20.00
   33.1173     31.07     31.05    -20.35     20.00
   33.1275     32.04     31.05    -19.38     20.00
   33.1376     31.96     31.05    -19.46     20.00
   33.1478     31.75     31.05    -19.67     20.00
   33.1580     31.05     31.05    -20.37     20.00
   33.1681     31.40     31.05    -20.01     20.00
   33.1783     31.70     31.04    -19.71     20.00
   33.1885     31.76     31.04    -19.65     20.00
   33.1986     31.52     31.04    -19.88     20.00
   33.2088     30.68     31.03    -20.72     20.00
   33.2189     32.23     31.03    -19.17     20.00
   33.2291     32.29     31.02    -19.10     20.00
   33.2393     31.27     31.02    -20.11     20.00
   33.2494     30.74     31.01    -20.64     20.00
   33.2596     31.87     31.01    -19.50     20.00
   33.2698     31.60     31.00    -19.77     20.00
   33.2799     30.85     30.99    -20.51     20.00
   33.2901     31.66     30.99    -19.69     20.00
   33.3003     31.57     30.98    -19.77     20.00
   33.3104     31.78     30.97    -19.56     20.00
   33.3206     32.35     30.96    -18.98     20.00
   33.3308     32.44     30.95    -18.88     20.00
   33.3409     31.82     30.94    -19.49     20.00
   33.3511     31.34     30.93    -19.96     20.00
   33.3613     31.54     30.92    -19.75     20.00
   33.3714     31.96     30.91    -19.31     20.00
   33.3816     31.29     30.90    -19.97     20.00
   33.3917     31.69     30.88    -19.56     20.00
   33.4019     31.76     30.87    -19.48     20.00
   33.4121     32.76     30.86    -18.46     20.00
   33.4222     31.45     30.84    -19.76     20.00
   33.4324     31.65     30.83    -19.54     20.00
   33.4426     31.37     30.81    -19.81     20.00
   33.4527     30.60     30.80    -20.56     20.00
   33.4629     32.26     30.78    -18.89     20.00
   33.4731     31.49     30.77    -19.64     20.00
   33.4832     31.08     30.75    -20.04     20.00
   33.4934     31.75     30.73    -19.35     20.00
   33.5036     31.90     30.71    -19.18     20.00
   33.5137     32.20     30.70    -18.86     20.00
   33.5239     31.07     30.68    -19.97     20.00
   33.5340     31.44     30.66    -19.58     20.00
   33.5442     31.13     30.64    -19.87     20.00
   33.5544     31.87     30.62    -19.11     20.00
   33.5645     31.78     30.60    -19.18     20.00
   33.5747     31.11     30.58    -19.83     20.00
   33.5849     31.65     30.55    -19.27     20.00
   33.5950     31.42     30.53    -19.48     20.00
   33.6052     31.32     30.51    -19.56     20.00
   33.6154     31.63     30.49    -19.22     20.00
   33.6255     29.99     30.46    -20.84     20.00
   33.6357     30.55     30.44    -20.26     20.00
   33.6459     31.10     30.42    -19.68     20.00
   33.6560     30.43     30.39    -20.33     20.00
   33.6662     30.68     30.37    -20.05     20.00
   33.6764     30.83     30.34    -19.88     20.00
   33.6865     31.03     30.32    -19.65     20.00
   33.6967     31.01     30.29    -19.65     20.00
   33.7068     30.16     30.26    -20.47     20.00
   33.7170     30.63     30.24    -19.97     20.00
   33.7272     29.57     30.21    -21.00     20.00
   33.7373     30.28     30.18    -20.27     20.00
   33.7475     30.65     30.15    -19.87     20.00
   33.7577     30.30     30.12    -20.19     20.00
   33.7678     29.82     30.10    -20.64     20.00
   33.7780     29.79     30.07    -20.64     20.00
   33.7882     30.43     30.04    -19.97     20.00
   33.7983     29.20     30.01    -21.17     20.00
   33.8085     29.66     29.98    -20.68     20.00
   33.8187     29.49     29.95    -20.82     20.00
   33.8288     29.57     29.92    -20.71     20.00
   33.8390     29.11     29.89    -21.14     20.00
   33.8491     28.68     29.86    -21.54     20.00
   33.8593     29.76     29.82    -20.43     20.00
   33.8695     29.43     29.79    -20.73     20.00
   33.8796     29.22     29.76    -20.91     20.00
   33.8898     28.35     29.73    -21.74     20.00
   33.9000     28.83     29.70    -21.23     20.00
   33.9101     29.12     29.66    -20.91     20.00
   33.9203     28.52     29.63    -21.48     20.00
   33.9305     29.32     29.60    -20.64     20.00
   33.9406     28.90     29.56    -21.03     20.00
   33.9508     28.27     29.53    -21.63     20.00
   33.9610     28.14     29.50    -21.72     20.00
   33.9711     27.82     29.46    -22.01     20.00
   33.9813     29.01     29.43    -20.79     20.00
   33.9915     28.47     29.40    -21.29     20.00
   34.0016     28.54     29.36    -21.19     20.00
   34.0118     28.50     29.33    -21.19     20.00
   34.0219     28.55     29.29    -21.11     20.00
   34.0321     28.59     29.26    -21.03     20.00
   34.0423     28.22     29.22    -21.37     20.00
   34.0524     27.48     29.19    -22.07     20.00
   34.0626     27.69     29.15    -21.83     20.00
   34.0728     28.85     29.12    -20.63     20.00
   34.0829     27.35     29.08    -22.10     20.00
   34.0931     28.01     29.05    -21.40     20.00
   34.1033     27.71     29.01    -21.67     20.00
   34.1134     27.75     28.98    -21.59     20.00
   34.1236     27.41     28.94    -21.90     20.00
   34.1338     27.73     28.91    -21.54     20.00
   34.1439     27.69     28.87    -21.55     20.00
   34.1541     27.83     28.83    -21.37     20.00
   34.1642     26.93     28.80    -22.24     20.00
   34.1744     27.34     28.76    -21.79     20.00
   34.1846     27.58     28.73    -21.51     20.00
   34.1947     27.31     28.69    -21.75     20.00
   34.2049     27.12     28.66    -21.90     20.00
   34.2151     27.08     28.62    -21.91     20.00
   34.2252     27.01     28.58    -21.94     20.00
   34.2354     27.13     28.55    -21.78     20.00
   34.2456     26.81     28.51    -22.07     20.00
   34.2557     27.14     28.48    -21.70     20.00
   34.2659     26.80     28.44    -22.01     20.00
   34.2761     26.80     28.40    -21.97     20.00
   34.2862     27.13     28.37    -21.61     20.00
   34.2964     26.28     28.33    -22.42     20.00
   34.3066     26.73     28.30    -21.93     20.00
   34.3167     27.05     28.26    -21.58     20.00
   34.3269     26.30     28.23    -22.29     20.00
   34.3370     26.76     28.19    -21.80     20.00
   34.3472     26.88     28.16    -21.64     20.00
   34.3574     26.82     28.12    -21.67     20.00
   34.3675     26.62     28.08    -21.83     20.00
   34.3777     26.54     28.05    -21.87     20.00
   34.3879     26.77     28.01    -21.61     20.00
   34.3980     26.16     27.98    -22.18     20.00
   34.4082     26.98     27.94    -21.33     20.00
   34.4184     26.54     27.91    -21.73     20.00
   34.4285     26.05     27.87    -22.19     20.00
   34.4387     26.46     27.84    -21.74     20.00
   34.4489     26.97     27.80    -21.20     20.00
   34.4590     26.02     27.77    -22.11     20.00
   34.4692     26.73     27.73    -21.37     20.00
   34.4793     26.13     27.70    -21.94     20.00
   34.4895     26.29     27.67    -21.74     20.00
   34.4997     26.21     27.63    -21.79     20.00
   34.5098     26.79     27.60    -21.17     20.00
   34.5200     26.10     27.56    -21.83     20.00
   34.5302     26.47     27.53    -21.42     20.00
   34.5403     25.70     27.49    -22.16     20.00
   34.5505     25.59     27.46    -22.24     20.00
   34.5607     26.34     27.43    -21.45     20.00
   34.5708     26.00     27.39    -21.76     20.00
   34.5810     26.35     27.36    -21.38     20.00
   34.5912     26.92     27.33    -20.77     20.00
   34.6013     25.62     27.29    -22.04     20.00
   34.6115     26.24     27.26    -21.39     20.00
   34.6217     25.80     27.23    -21.79     20.00
   34.6318     26.62     27.20    -20.94     20.00
   34.6420     25.74     27.16    -21.79     20.00
   34.6521     25.10     27.13    -22.40     20.00
   34.6623     26.27     27.10    -21.20     20.00
   34.6725     25.91     27.07    -21.52     20.00
   34.6826     25.23     27.04    -22.17     20.00
   34.6928     25.43     27.00    -21.94     20.00
   34.7030     26.07     26.97    -21.27     20.00
   34.7131     25.92     26.94    -21.39     20.00
   34.7233     26.12     26.91    -21.16     20.00
   34.7335     25.20     26.88    -22.04     20.00
   34.7436     26.19     26.85    -21.02     20.00
   34.7538     26.01     26.82    -21.17     20.00
   34.7640     25.88     26.79    -21.27     20.00
   34.7741     25.76     26.76    -21.36     20.00
   34.7843     25.48     26.72    -21.61     20.00
   34.7944     24.66     26.69    -22.40     20.00
   34.8046     25.58     26.66    -21.45     20.00
   34.8148     26.28     26.63    -20.72     20.00
   34.8249     25.55     26.61    -21.42     20.00
   34.8351     25.47     26.58    -21.47     20.00
   34.8453     25.89     26.55    -21.02     20.00
   34.8554     25.12     26.52    -21.76     20.00
   34.8656     25.84     26.49    -21.01     20.00
   34.8758     25.69     26.46    -21.14     20.00
   34.8859     25.07     26.43    -21.73     20.00
   34.8961     25.51     26.40    -21.26     20.00
   34.9063     25.40     26.37    -21.34     20.00
   34.9164     25.01     26.35    -21.70     20.00
   34.9266     25.21     26.32    -21.47     20.00
   34.9367     25.68     26.29    -20.98     20.00
   34.9469     25.74     26.26    -20.89     20.00
   34.9571     25.12     26.24    -21.48     20.00
   34.9672     25.51     26.21    -21.07     20.00
   34.9774     25.71     26.18    -20.84     20.00
   34.9876     25.09     26.16    -21.43     20.00
   34.9977     25.20     26.13    -21.30     20.00
   35.0079     26.01     26.10    -20.46     20.00
   35.0181     25.98     26.08    -20.46     20.00
   35.0282     24.80     26.05    -21.62     20.00
   35.0384     25.05     26.02    -21.34     20.00
   35.0486     25.32     26.00    -21.04     20.00
   35.0587     25.47     25.97    -20.87     20.00
   35.0689     25.42     25.95    -20.89     20.00
   35.0791     24.99     25.92    -21.30     20.00
   35.0892     24.92     25.90    -21.34     20.00
   35.0994     25.50     25.87    -20.74     20.00
   35.1095     25.54     25.85    -20.67     20.00
   35.1197     25.62     25.82    -20.57     20.00
   35.1299     24.79     25.80    -21.38     20.00
   35.1400     25.52     25.78    -20.62     20.00
   35.1502     25.05     25.75    -21.07     20.00
   35.1604     25.42     25.73    -20.67     20.00
   35.1705     25.35     25.70    -20.72     20.00
   35.1807     24.82     25.68    -21.23     20.00
   35.1909     25.15     25.66    -20.87     20.00
   35.2010     24.70     25.64    -21.30     20.00
   35.2112     25.57     25.61    -20.41     20.00
   35.2214     25.24     25.59    -20.72     20.00
   35.2315     25.54     25.57    -20.39     20.00
   35.2417     25.27     25.55    -20.64     20.00
   35.2518     25.76     25.52    -20.13     20.00
   35.2620     24.68     25.50    -21.19     20.00
   35.2722     25.28     25.48    -20.57     20.00
   35.2823     24.70     25.46    -21.12     20.00
   35.2925     24.78     25.44    -21.02     20.00
   35.3027     25.37     25.42    -20.41     20.00
   35.3128     24.76     25.39    -21.00     20.00
   35.3230     24.85     25.37    -20.89     20.00
   35.3332     24.62     25.35    -21.10     20.00
   35.3433     24.18     25.33    -21.52     20.00
   35.3535     25.28     25.31    -20.40     20.00
   35.3637     24.59     25.29    -21.07     20.00
   35.3738     24.60     25.27    -21.04     20.00
   35.3840     25.40     25.25    -20.22     20.00
   35.3942     24.28     25.23    -21.32     20.00
   35.4043     24.81     25.21    -20.77     20.00
   35.4145     25.30     25.19    -20.26     20.00
   35.4246     24.58     25.17    -20.96     20.00
   35.4348     24.68     25.16    -20.84     20.00
   35.4450     25.02     25.14    -20.48     20.00
   35.4551     24.97     25.12    -20.51     20.00
   35.4653     24.67     25.10    -20.80     20.00
   35.4755     24.67     25.08    -20.78     20.00
   35.4856     24.62     25.06    -20.81     20.00
   35.4958     24.61     25.05    -20.80     20.00
   35.5060     24.42     25.03    -20.97     20.00
   35.5161     25.19     25.01    -20.19     20.00
   35.5263     25.04     24.99    -20.32     20.00
   35.5365     25.48     24.97    -19.86     20.00
   35.5466     24.57     24.96    -20.75     20.00
   35.5568     24.90     24.94    -20.41     20.00
   35.5669     24.63     24.92    -20.66     20.00
   35.5771     25.11     24.91    -20.16     20.00
   35.5873     24.09     24.89    -21.17     20.00
   35.5974     24.42     24.87    -20.82     20.00
   35.6076     24.57     24.86    -20.65     20.00
   35.6178     25.21     24.84    -20.00     20.00
   35.6279     24.60     24.82    -20.59     20.00
   35.6381     24.35     24.81    -20.82     20.00
   35.6483     25.10     24.79    -20.06     20.00
   35.6584     25.13     24.78    -20.01     20.00
   35.6686     24.54     24.76    -20.59     20.00
   35.6788     24.62     24.75    -20.49     20.00
   35.6889     23.90     24.73    -21.20     20.00
   35.6991     24.70     24.72    -20.38     20.00
   35.7093     24.60     24.70    -20.47     20.00
   35.7194     24.26     24.69    -20.79     20.00
   35.7296     24.26     24.67    -20.78     20.00
   35.7397     24.63     24.66    -20.39     20.00
   35.7499     25.01     24.64    -20.00     20.00
   35.7601     24.26     24.63    -20.73     20.00
   35.7702     24.32     24.61    -20.66     20.00
   35.7804     24.70     24.60    -20.27     20.00
   35.7906     24.25     24.59    -20.70     20.00
   35.8007     24.16     24.57    -20.78     20.00
   35.8109     24.11     24.56    -20.81     20.00
   35.8211     24.18     24.55    -20.73     20.00
   35.8312     24.34     24.53    -20.56     20.00
   35.8414     24.38     24.52    -20.50     20.00
   35.8516     24.51     24.51    -20.36     20.00
   35.8617     25.13     24.49    -19.73     20.00
   35.8719     24.91     24.48    -19.94     20.00
   35.8820     24.00     24.47    -20.83     20.00
   35.8922     24.32     24.45    -20.50     20.00
   35.9024     24.92     24.44    -19.89     20.00
   35.9125     24.40     24.43    -20.39     20.00
   35.9227     23.84     24.42    -20.94     20.00
   35.9329     24.41     24.40    -20.36     20.00
   35.9430     25.12     24.39    -19.64     20.00
   35.9532     23.76     24.38    -20.99     20.00
   35.9634     24.57     24.37    -20.16     20.00
   35.9735     23.98     24.36    -20.74     20.00
   35.9837     23.68     24.34    -21.03     20.00
   35.9939     24.93     24.33    -19.77     20.00
