 => TITLE: 
 => Data file name: C:\Users\stefano\Nextcloud2\projects\programming\python\xrd-winplotr\folder\G305\G305--5-40-0.01-1000ms.xy
 => Instrm        :    1
 => Lambda(1&2)   :   1.54060  1.54060
 => Numb.of.points:      2949
 => Numb.of.peaks :         8
    2Theta     Yobs     Ycalc  Yobs-Ycal    Backg    Bragg     Posr  Intensity   FWHM    Eta
    5.9476     24.81     24.66    -21.37     20.26   18.5963      0.71     141.77  0.8845  0.5000
    5.9578     24.44     24.67    -21.75     20.26   20.3564      0.71      54.74  1.2377  0.5000
    5.9679     25.06     24.68    -21.14     20.26   22.3711      0.71     104.50  1.2514  0.5000
    5.9781     24.91     24.68    -21.30     20.26   28.4538      0.71      40.31  1.4173  0.5000
    5.9883     25.07     24.69    -21.14     20.26   29.9864      0.71      46.11  4.0797  0.5000
    5.9984     24.17     24.70    -22.05     20.26   33.4064      0.71      11.24  1.7364  0.5000
    6.0086     24.68     24.71    -21.55     20.26   17.4812      0.71      76.07  2.5650  0.5000
    6.0187     25.04     24.71    -21.20     20.26   19.7525      0.71    1019.70 10.2180  0.5000
    6.0289     25.01     24.72    -21.24     20.26
    6.0391     24.21     24.73    -22.04     20.26
    6.0492     24.46     24.74    -21.80     20.26
    6.0594     24.79     24.75    -21.48     20.26
    6.0696     24.70     24.75    -21.58     20.26
    6.0797     24.29     24.76    -22.00     20.26
    6.0899     24.72     24.77    -21.57     20.26
    6.1001     24.35     24.78    -21.95     20.26
    6.1102     24.49     24.79    -21.82     20.26
    6.1204     24.20     24.79    -22.12     20.26
    6.1306     24.32     24.80    -22.01     20.26
    6.1407     24.40     24.81    -21.94     20.26
    6.1509     24.18     24.82    -22.16     20.26
    6.1611     24.45     24.83    -21.90     20.26
    6.1712     23.84     24.84    -22.52     20.26
    6.1814     24.26     24.84    -22.11     20.26
    6.1915     23.88     24.85    -22.50     20.26
    6.2017     24.03     24.86    -22.36     20.26
    6.2119     23.87     24.87    -22.52     20.26
    6.2220     24.30     24.88    -22.10     20.26
    6.2322     23.94     24.89    -22.47     20.26
    6.2424     23.80     24.89    -22.62     20.26
    6.2525     24.66     24.90    -21.77     20.26
    6.2627     23.66     24.91    -22.78     20.26
    6.2729     24.15     24.92    -22.29     20.26
    6.2830     24.28     24.93    -22.17     20.26
    6.2932     24.60     24.94    -21.86     20.26
    6.3034     23.36     24.95    -23.11     20.26
    6.3135     23.60     24.96    -22.88     20.26
    6.3237     23.59     24.96    -22.90     20.26
    6.3338     24.84     24.97    -21.66     20.26
    6.3440     24.73     24.98    -21.78     20.26
    6.3542     23.96     24.99    -22.55     20.26
    6.3643     24.35     25.00    -22.17     20.26
    6.3745     23.30     25.01    -23.23     20.26
    6.3847     23.27     25.02    -23.27     20.26
    6.3948     24.23     25.03    -22.32     20.26
    6.4050     23.91     25.03    -22.65     20.26
    6.4152     23.70     25.04    -22.87     20.26
    6.4253     24.16     25.05    -22.42     20.26
    6.4355     24.27     25.06    -22.32     20.26
    6.4457     23.38     25.07    -23.21     20.26
    6.4558     24.00     25.08    -22.60     20.26
    6.4660     23.90     25.09    -22.71     20.26
    6.4762     23.70     25.10    -22.92     20.26
    6.4863     23.93     25.11    -22.70     20.26
    6.4965     24.17     25.12    -22.47     20.26
    6.5066     23.94     25.13    -22.71     20.27
    6.5168     23.84     25.14    -22.82     20.27
    6.5270     23.93     25.14    -22.74     20.27
    6.5371     22.95     25.15    -23.73     20.27
    6.5473     23.12     25.16    -23.57     20.27
    6.5575     23.91     25.17    -22.79     20.27
    6.5676     24.20     25.18    -22.51     20.27
    6.5778     24.59     25.19    -22.13     20.27
    6.5880     24.02     25.20    -22.71     20.27
    6.5981     24.21     25.21    -22.52     20.27
    6.6083     24.17     25.22    -22.57     20.27
    6.6185     24.54     25.23    -22.21     20.27
    6.6286     24.49     25.24    -22.27     20.27
    6.6388     24.31     25.25    -22.46     20.27
    6.6489     24.59     25.26    -22.19     20.27
    6.6591     24.38     25.27    -22.41     20.27
    6.6693     23.68     25.28    -23.12     20.27
    6.6794     23.57     25.29    -23.24     20.27
    6.6896     24.78     25.30    -22.04     20.27
    6.6998     24.46     25.31    -22.37     20.27
    6.7099     24.46     25.32    -22.38     20.27
    6.7201     23.53     25.33    -23.32     20.27
    6.7303     25.36     25.34    -21.50     20.27
    6.7404     24.38     25.35    -22.49     20.27
    6.7506     23.39     25.36    -23.49     20.27
    6.7608     23.76     25.37    -23.13     20.27
    6.7709     24.01     25.38    -22.89     20.27
    6.7811     23.87     25.39    -23.04     20.27
    6.7913     24.43     25.40    -22.49     20.27
    6.8014     24.32     25.41    -22.61     20.27
    6.8116     23.98     25.42    -22.96     20.27
    6.8217     24.18     25.43    -22.77     20.27
    6.8319     22.94     25.44    -24.02     20.27
    6.8421     23.62     25.45    -23.35     20.27
    6.8522     24.19     25.46    -22.80     20.27
    6.8624     24.31     25.47    -22.69     20.27
    6.8726     24.38     25.48    -22.63     20.27
    6.8827     25.31     25.49    -21.71     20.27
    6.8929     24.70     25.50    -22.33     20.27
    6.9031     24.97     25.51    -22.07     20.27
    6.9132     23.93     25.52    -23.12     20.27
    6.9234     23.61     25.54    -23.45     20.27
    6.9336     23.90     25.55    -23.17     20.27
    6.9437     24.36     25.56    -22.72     20.27
    6.9539     24.58     25.57    -22.51     20.27
    6.9640     24.64     25.58    -22.46     20.27
    6.9742     24.35     25.59    -22.76     20.27
    6.9844     24.02     25.60    -23.10     20.27
    6.9945     24.35     25.61    -22.79     20.27
    7.0047     24.76     25.62    -22.39     20.27
    7.0149     24.35     25.63    -22.81     20.27
    7.0250     24.51     25.64    -22.66     20.27
    7.0352     24.78     25.66    -22.40     20.27
    7.0454     23.80     25.67    -23.39     20.27
    7.0555     24.70     25.68    -22.50     20.27
    7.0657     24.51     25.69    -22.70     20.27
    7.0759     24.20     25.70    -23.02     20.27
    7.0860     24.05     25.71    -23.19     20.27
    7.0962     25.04     25.72    -22.21     20.27
    7.1064     24.80     25.73    -22.46     20.27
    7.1165     25.11     25.75    -22.16     20.27
    7.1267     25.05     25.76    -22.23     20.27
    7.1368     24.51     25.77    -22.78     20.27
    7.1470     24.55     25.78    -22.75     20.27
    7.1572     24.93     25.79    -22.39     20.27
    7.1673     24.74     25.80    -22.59     20.27
    7.1775     25.26     25.82    -22.08     20.27
    7.1877     25.18     25.83    -22.17     20.27
    7.1978     25.03     25.84    -22.33     20.27
    7.2080     25.48     25.85    -21.90     20.27
    7.2182     25.16     25.86    -22.23     20.28
    7.2283     24.31     25.87    -23.09     20.28
    7.2385     24.27     25.89    -23.14     20.28
    7.2487     25.16     25.90    -22.26     20.28
    7.2588     24.41     25.91    -23.02     20.28
    7.2690     24.22     25.92    -23.23     20.28
    7.2791     25.06     25.94    -22.40     20.28
    7.2893     25.32     25.95    -22.15     20.28
    7.2995     25.57     25.96    -21.91     20.28
    7.3096     25.25     25.97    -22.25     20.28
    7.3198     25.34     25.98    -22.17     20.28
    7.3300     25.77     26.00    -21.75     20.28
    7.3401     26.04     26.01    -21.49     20.28
    7.3503     25.42     26.02    -22.13     20.28
    7.3605     24.62     26.03    -22.94     20.28
    7.3706     25.79     26.05    -21.78     20.28
    7.3808     24.51     26.06    -23.07     20.28
    7.3910     25.77     26.07    -21.83     20.28
    7.4011     25.38     26.08    -22.23     20.28
    7.4113     25.90     26.10    -21.72     20.28
    7.4215     25.30     26.11    -22.33     20.28
    7.4316     25.34     26.12    -22.31     20.28
    7.4418     25.52     26.14    -22.14     20.28
    7.4519     24.95     26.15    -22.72     20.28
    7.4621     25.12     26.16    -22.57     20.28
    7.4723     25.76     26.17    -21.94     20.28
    7.4824     24.71     26.19    -23.00     20.28
    7.4926     25.24     26.20    -22.48     20.28
    7.5028     24.85     26.21    -22.89     20.28
    7.5129     25.95     26.23    -21.80     20.28
    7.5231     26.25     26.24    -21.51     20.28
    7.5333     25.31     26.25    -22.47     20.28
    7.5434     25.09     26.27    -22.70     20.28
    7.5536     25.80     26.28    -22.00     20.28
    7.5638     26.45     26.29    -21.37     20.28
    7.5739     25.03     26.31    -22.80     20.28
    7.5841     25.90     26.32    -21.94     20.28
    7.5942     25.20     26.33    -22.66     20.28
    7.6044     25.68     26.35    -22.19     20.28
    7.6146     26.62     26.36    -21.27     20.28
    7.6247     25.74     26.38    -22.16     20.28
    7.6349     26.01     26.39    -21.90     20.28
    7.6451     26.16     26.40    -21.77     20.28
    7.6552     25.63     26.42    -22.31     20.28
    7.6654     24.76     26.43    -23.19     20.28
    7.6756     26.00     26.44    -21.97     20.28
    7.6857     25.89     26.46    -22.09     20.28
    7.6959     26.26     26.47    -21.74     20.28
    7.7061     26.25     26.49    -21.76     20.28
    7.7162     26.21     26.50    -21.82     20.28
    7.7264     25.78     26.52    -22.26     20.28
    7.7365     26.09     26.53    -21.96     20.28
    7.7467     27.25     26.54    -20.82     20.28
    7.7569     26.43     26.56    -21.65     20.28
    7.7670     26.20     26.57    -21.90     20.28
    7.7772     26.45     26.59    -21.66     20.28
    7.7874     26.66     26.60    -21.47     20.28
    7.7975     25.90     26.62    -22.24     20.28
    7.8077     26.32     26.63    -21.84     20.28
    7.8179     26.24     26.65    -21.93     20.28
    7.8280     25.88     26.66    -22.30     20.28
    7.8382     26.13     26.68    -22.07     20.28
    7.8484     26.83     26.69    -21.38     20.28
    7.8585     26.23     26.71    -22.00     20.28
    7.8687     26.56     26.72    -21.68     20.28
    7.8789     25.54     26.74    -22.72     20.28
    7.8890     26.43     26.75    -21.84     20.28
    7.8992     27.12     26.77    -21.17     20.28
    7.9093     26.48     26.78    -21.83     20.28
    7.9195     26.20     26.80    -22.12     20.29
    7.9297     27.01     26.81    -21.33     20.29
    7.9398     26.79     26.83    -21.56     20.29
    7.9500     26.51     26.84    -21.86     20.29
    7.9602     27.08     26.86    -21.30     20.29
    7.9703     26.48     26.87    -21.92     20.29
    7.9805     26.92     26.89    -21.49     20.29
    7.9907     26.82     26.91    -21.61     20.29
    8.0008     27.29     26.92    -21.15     20.29
    8.0110     27.29     26.94    -21.17     20.29
    8.0212     26.39     26.95    -22.09     20.29
    8.0313     27.56     26.97    -20.93     20.29
    8.0415     27.11     26.98    -21.40     20.29
    8.0516     26.87     27.00    -21.65     20.29
    8.0618     26.98     27.02    -21.56     20.29
    8.0720     27.41     27.03    -21.15     20.29
    8.0821     27.36     27.05    -21.21     20.29
    8.0923     27.07     27.07    -21.52     20.29
    8.1025     27.93     27.08    -20.68     20.29
    8.1126     27.32     27.10    -21.30     20.29
    8.1228     27.52     27.11    -21.12     20.29
    8.1330     27.63     27.13    -21.03     20.29
    8.1431     27.55     27.15    -21.12     20.29
    8.1533     26.53     27.16    -22.16     20.29
    8.1635     28.43     27.18    -20.28     20.29
    8.1736     27.16     27.20    -21.56     20.29
    8.1838     26.92     27.21    -21.82     20.29
    8.1940     27.98     27.23    -20.78     20.29
    8.2041     27.32     27.25    -21.45     20.29
    8.2143     27.37     27.27    -21.42     20.29
    8.2244     27.49     27.28    -21.32     20.29
    8.2346     27.59     27.30    -21.23     20.29
    8.2448     27.40     27.32    -21.44     20.29
    8.2549     27.35     27.33    -21.51     20.29
    8.2651     27.34     27.35    -21.54     20.29
    8.2753     27.82     27.37    -21.07     20.29
    8.2854     27.30     27.39    -21.61     20.29
    8.2956     27.76     27.40    -21.17     20.29
    8.3058     27.53     27.42    -21.42     20.29
    8.3159     27.97     27.44    -20.99     20.29
    8.3261     27.43     27.46    -21.55     20.29
    8.3363     27.90     27.48    -21.10     20.29
    8.3464     27.88     27.49    -21.14     20.29
    8.3566     28.52     27.51    -20.51     20.29
    8.3667     28.63     27.53    -20.42     20.29
    8.3769     28.18     27.55    -20.89     20.29
    8.3871     28.46     27.57    -20.63     20.29
    8.3972     28.38     27.58    -20.73     20.29
    8.4074     27.96     27.60    -21.17     20.29
    8.4176     29.32     27.62    -19.82     20.29
    8.4277     27.55     27.64    -21.61     20.29
    8.4379     28.09     27.66    -21.09     20.29
    8.4481     28.04     27.68    -21.16     20.29
    8.4582     28.00     27.69    -21.22     20.29
    8.4684     28.03     27.71    -21.21     20.29
    8.4786     27.82     27.73    -21.44     20.29
    8.4887     28.13     27.75    -21.14     20.29
    8.4989     28.90     27.77    -20.39     20.29
    8.5091     28.09     27.79    -21.22     20.29
    8.5192     27.41     27.81    -21.92     20.29
    8.5294     27.26     27.83    -22.09     20.29
    8.5395     28.25     27.85    -21.12     20.29
    8.5497     28.02     27.86    -21.37     20.29
    8.5599     28.40     27.88    -21.01     20.29
    8.5700     28.42     27.90    -21.01     20.29
    8.5802     30.01     27.92    -19.44     20.29
    8.5904     28.73     27.94    -20.74     20.29
    8.6005     29.41     27.96    -20.08     20.29
    8.6107     28.20     27.98    -21.31     20.29
    8.6209     28.50     28.00    -21.03     20.30
    8.6310     28.51     28.02    -21.04     20.30
    8.6412     28.68     28.04    -20.89     20.30
    8.6514     28.11     28.06    -21.48     20.30
    8.6615     28.18     28.08    -21.43     20.30
    8.6717     28.91     28.10    -20.72     20.30
    8.6818     28.65     28.12    -21.00     20.30
    8.6920     28.95     28.14    -20.72     20.30
    8.7022     28.55     28.16    -21.14     20.30
    8.7123     28.83     28.18    -20.88     20.30
    8.7225     28.70     28.20    -21.03     20.30
    8.7327     28.18     28.22    -21.57     20.30
    8.7428     29.66     28.24    -20.11     20.30
    8.7530     29.33     28.27    -20.46     20.30
    8.7632     28.32     28.29    -21.49     20.30
    8.7733     29.76     28.31    -20.07     20.30
    8.7835     29.58     28.33    -20.27     20.30
    8.7937     29.04     28.35    -20.83     20.30
    8.8038     29.20     28.37    -20.69     20.30
    8.8140     28.85     28.39    -21.07     20.30
    8.8242     29.37     28.41    -20.57     20.30
    8.8343     29.38     28.43    -20.58     20.30
    8.8445     28.94     28.46    -21.04     20.30
    8.8546     29.03     28.48    -20.97     20.30
    8.8648     30.46     28.50    -19.56     20.30
    8.8750     29.88     28.52    -20.16     20.30
    8.8851     29.05     28.54    -21.02     20.30
    8.8953     30.18     28.56    -19.91     20.30
    8.9055     29.62     28.59    -20.49     20.30
    8.9156     30.10     28.61    -20.03     20.30
    8.9258     29.60     28.63    -20.55     20.30
    8.9360     29.42     28.65    -20.76     20.30
    8.9461     29.64     28.67    -20.56     20.30
    8.9563     29.57     28.70    -20.65     20.30
    8.9665     29.89     28.72    -20.35     20.30
    8.9766     29.15     28.74    -21.12     20.30
    8.9868     29.61     28.76    -20.68     20.30
    8.9969     29.87     28.79    -20.44     20.30
    9.0071     30.12     28.81    -20.21     20.30
    9.0173     29.33     28.83    -21.03     20.30
    9.0274     29.38     28.86    -21.00     20.30
    9.0376     29.82     28.88    -20.58     20.30
    9.0478     29.39     28.90    -21.04     20.30
    9.0579     30.34     28.92    -20.11     20.30
    9.0681     31.23     28.95    -19.24     20.30
    9.0783     29.98     28.97    -20.52     20.30
    9.0884     29.41     28.99    -21.11     20.30
    9.0986     29.38     29.02    -21.16     20.30
    9.1088     30.08     29.04    -20.49     20.30
    9.1189     30.01     29.07    -20.58     20.30
    9.1291     29.83     29.09    -20.78     20.30
    9.1393     29.38     29.11    -21.26     20.30
    9.1494     30.15     29.14    -20.51     20.30
    9.1596     30.09     29.16    -20.60     20.30
    9.1697     30.41     29.18    -20.30     20.30
    9.1799     30.32     29.21    -20.41     20.30
    9.1901     30.36     29.23    -20.40     20.30
    9.2002     30.42     29.26    -20.36     20.30
    9.2104     30.08     29.28    -20.73     20.30
    9.2206     29.26     29.31    -21.57     20.30
    9.2307     29.99     29.33    -20.87     20.30
    9.2409     31.73     29.36    -19.15     20.30
    9.2511     30.81     29.38    -20.10     20.30
    9.2612     30.96     29.41    -19.97     20.30
    9.2714     30.69     29.43    -20.27     20.30
    9.2816     30.05     29.46    -20.93     20.30
    9.2917     30.95     29.48    -20.06     20.30
    9.3019     30.96     29.51    -20.07     20.30
    9.3120     30.59     29.53    -20.47     20.30
    9.3222     30.11     29.56    -20.97     20.30
    9.3324     30.83     29.58    -20.28     20.31
    9.3425     31.51     29.61    -19.62     20.31
    9.3527     30.83     29.63    -20.33     20.31
    9.3629     31.98     29.66    -19.20     20.31
    9.3730     30.54     29.69    -20.67     20.31
    9.3832     32.07     29.71    -19.17     20.31
    9.3934     31.73     29.74    -19.53     20.31
    9.4035     30.62     29.76    -20.67     20.31
    9.4137     31.16     29.79    -20.16     20.31
    9.4239     31.55     29.82    -19.79     20.31
    9.4340     31.04     29.84    -20.33     20.31
    9.4442     31.12     29.87    -20.27     20.31
    9.4544     31.60     29.90    -19.82     20.31
    9.4645     30.39     29.92    -21.06     20.31
    9.4747     31.86     29.95    -19.62     20.31
    9.4848     31.87     29.98    -19.63     20.31
    9.4950     31.26     30.01    -20.27     20.31
    9.5052     31.17     30.03    -20.39     20.31
    9.5153     30.61     30.06    -20.97     20.31
    9.5255     31.57     30.09    -20.04     20.31
    9.5357     31.40     30.11    -20.24     20.31
    9.5458     31.38     30.14    -20.29     20.31
    9.5560     31.65     30.17    -20.04     20.31
    9.5662     30.74     30.20    -20.98     20.31
    9.5763     32.24     30.23    -19.51     20.31
    9.5865     31.46     30.25    -20.32     20.31
    9.5967     30.99     30.28    -20.82     20.31
    9.6068     31.54     30.31    -20.29     20.31
    9.6170     31.01     30.34    -20.85     20.31
    9.6271     32.52     30.37    -19.37     20.31
    9.6373     31.99     30.39    -19.93     20.31
    9.6475     30.45     30.42    -21.50     20.31
    9.6576     31.19     30.45    -20.79     20.31
    9.6678     31.51     30.48    -20.49     20.31
    9.6780     31.36     30.51    -20.67     20.31
    9.6881     31.19     30.54    -20.87     20.31
    9.6983     31.77     30.57    -20.32     20.31
    9.7085     31.51     30.60    -20.61     20.31
    9.7186     31.91     30.63    -20.24     20.31
    9.7288     32.13     30.66    -20.05     20.31
    9.7390     31.59     30.69    -20.62     20.31
    9.7491     31.71     30.71    -20.53     20.31
    9.7593     31.52     30.74    -20.75     20.31
    9.7694     32.20     30.77    -20.10     20.31
    9.7796     31.87     30.80    -20.46     20.31
    9.7898     31.59     30.83    -20.77     20.31
    9.7999     32.69     30.86    -19.70     20.31
    9.8101     32.19     30.89    -20.23     20.31
    9.8203     32.41     30.93    -20.04     20.31
    9.8304     32.43     30.96    -20.05     20.31
    9.8406     32.02     30.99    -20.49     20.31
    9.8508     32.18     31.02    -20.36     20.31
    9.8609     32.79     31.05    -19.78     20.31
    9.8711     32.26     31.08    -20.34     20.31
    9.8813     31.93     31.11    -20.70     20.31
    9.8914     31.56     31.14    -21.10     20.31
    9.9016     32.39     31.17    -20.31     20.31
    9.9118     31.96     31.20    -20.77     20.31
    9.9219     32.05     31.23    -20.71     20.31
    9.9321     32.15     31.27    -20.64     20.31
    9.9422     32.40     31.30    -20.42     20.31
    9.9524     32.04     31.33    -20.81     20.31
    9.9626     32.32     31.36    -20.57     20.31
    9.9727     32.12     31.39    -20.80     20.31
    9.9829     33.16     31.43    -19.79     20.31
    9.9931     33.37     31.46    -19.61     20.31
   10.0032     32.29     31.49    -20.72     20.31
   10.0134     32.72     31.52    -20.33     20.31
   10.0236     32.84     31.56    -20.24     20.31
   10.0337     33.40     31.59    -19.71     20.32
   10.0439     32.79     31.62    -20.36     20.32
   10.0541     33.41     31.65    -19.77     20.32
   10.0642     33.63     31.69    -19.58     20.32
   10.0744     32.17     31.72    -21.07     20.32
   10.0845     33.22     31.75    -20.06     20.32
   10.0947     33.11     31.79    -20.20     20.32
   10.1049     32.84     31.82    -20.50     20.32
   10.1150     33.62     31.85    -19.76     20.32
   10.1252     32.57     31.89    -20.84     20.32
   10.1354     32.76     31.92    -20.69     20.32
   10.1455     33.71     31.96    -19.77     20.32
   10.1557     33.32     31.99    -20.19     20.32
   10.1659     32.99     32.02    -20.56     20.32
   10.1760     32.77     32.06    -20.81     20.32
   10.1862     33.32     32.09    -20.30     20.32
   10.1964     32.79     32.13    -20.86     20.32
   10.2065     33.30     32.16    -20.39     20.32
   10.2167     33.16     32.20    -20.56     20.32
   10.2269     33.23     32.23    -20.53     20.32
   10.2370     33.01     32.27    -20.78     20.32
   10.2472     33.04     32.30    -20.79     20.32
   10.2573     34.02     32.34    -19.84     20.32
   10.2675     34.08     32.37    -19.82     20.32
   10.2777     34.10     32.41    -19.83     20.32
   10.2878     34.21     32.44    -19.76     20.32
   10.2980     34.39     32.48    -19.61     20.32
   10.3082     33.43     32.52    -20.61     20.32
   10.3183     33.48     32.55    -20.59     20.32
   10.3285     33.37     32.59    -20.74     20.32
   10.3387     32.70     32.62    -21.45     20.32
   10.3488     33.79     32.66    -20.39     20.32
   10.3590     34.04     32.70    -20.18     20.32
   10.3692     33.85     32.73    -20.41     20.32
   10.3793     33.08     32.77    -21.21     20.32
   10.3895     33.91     32.81    -20.42     20.32
   10.3996     33.55     32.84    -20.82     20.32
   10.4098     33.98     32.88    -20.42     20.32
   10.4200     34.02     32.92    -20.42     20.32
   10.4301     33.52     32.95    -20.96     20.32
   10.4403     34.40     32.99    -20.12     20.32
   10.4505     34.02     33.03    -20.53     20.32
   10.4606     33.97     33.07    -20.62     20.32
   10.4708     34.74     33.11    -19.89     20.32
   10.4810     34.09     33.14    -20.58     20.32
   10.4911     34.29     33.18    -20.42     20.32
   10.5013     34.07     33.22    -20.67     20.32
   10.5115     34.62     33.26    -20.16     20.32
   10.5216     34.46     33.30    -20.36     20.32
   10.5318     33.85     33.34    -21.01     20.32
   10.5420     35.20     33.37    -19.70     20.32
   10.5521     34.07     33.41    -20.87     20.32
   10.5623     33.97     33.45    -21.01     20.32
   10.5724     34.20     33.49    -20.82     20.32
   10.5826     34.88     33.53    -20.17     20.32
   10.5928     34.35     33.57    -20.74     20.32
   10.6029     34.39     33.61    -20.74     20.32
   10.6131     34.62     33.65    -20.55     20.32
   10.6233     34.09     33.69    -21.12     20.32
   10.6334     34.46     33.73    -20.79     20.32
   10.6436     34.91     33.77    -20.38     20.32
   10.6538     34.09     33.81    -21.24     20.32
   10.6639     34.78     33.85    -20.59     20.32
   10.6741     35.08     33.89    -20.33     20.32
   10.6843     34.84     33.93    -20.61     20.32
   10.6944     33.88     33.97    -21.62     20.32
   10.7046     34.78     34.01    -20.76     20.32
   10.7147     35.86     34.05    -19.72     20.32
   10.7249     35.12     34.09    -20.50     20.32
   10.7351     34.27     34.14    -21.39     20.33
   10.7452     34.76     34.18    -20.94     20.33
   10.7554     35.16     34.22    -20.58     20.33
   10.7656     34.16     34.26    -21.62     20.33
   10.7757     35.34     34.30    -20.49     20.33
   10.7859     35.68     34.34    -20.19     20.33
   10.7961     35.49     34.39    -20.42     20.33
   10.8062     35.12     34.43    -20.83     20.33
   10.8164     35.78     34.47    -20.21     20.33
   10.8266     34.97     34.51    -21.07     20.33
   10.8367     34.65     34.56    -21.43     20.33
   10.8469     35.12     34.60    -21.00     20.33
   10.8571     35.19     34.64    -20.98     20.33
   10.8672     34.90     34.68    -21.31     20.33
   10.8774     35.75     34.73    -20.50     20.33
   10.8875     34.93     34.77    -21.37     20.33
   10.8977     35.83     34.81    -20.51     20.33
   10.9079     36.41     34.86    -19.97     20.33
   10.9180     35.80     34.90    -20.63     20.33
   10.9282     34.83     34.95    -21.64     20.33
   10.9384     35.65     34.99    -20.86     20.33
   10.9485     36.55     35.03    -20.01     20.33
   10.9587     35.82     35.08    -20.78     20.33
   10.9689     35.47     35.12    -21.18     20.33
   10.9790     35.74     35.17    -20.95     20.33
   10.9892     35.54     35.21    -21.20     20.33
   10.9994     35.91     35.26    -20.87     20.33
   11.0095     35.50     35.30    -21.33     20.33
   11.0197     36.45     35.35    -20.42     20.33
   11.0298     35.75     35.39    -21.17     20.33
   11.0400     35.88     35.44    -21.08     20.33
   11.0502     35.26     35.48    -21.75     20.33
   11.0603     35.96     35.53    -21.09     20.33
   11.0705     36.03     35.58    -21.07     20.33
   11.0807     35.93     35.62    -21.22     20.33
   11.0908     35.94     35.67    -21.25     20.33
   11.1010     36.58     35.71    -20.66     20.33
   11.1112     37.12     35.76    -20.16     20.33
   11.1213     36.28     35.81    -21.05     20.33
   11.1315     36.29     35.85    -21.09     20.33
   11.1417     37.03     35.90    -20.39     20.33
   11.1518     36.23     35.95    -21.24     20.33
   11.1620     35.71     36.00    -21.81     20.33
   11.1722     37.25     36.04    -20.32     20.33
   11.1823     36.66     36.09    -20.95     20.33
   11.1925     35.99     36.14    -21.67     20.33
   11.2026     36.34     36.19    -21.37     20.33
   11.2128     36.63     36.23    -21.13     20.33
   11.2230     35.99     36.28    -21.82     20.33
   11.2331     36.72     36.33    -21.13     20.33
   11.2433     37.32     36.38    -20.58     20.33
   11.2535     35.33     36.43    -22.62     20.33
   11.2636     37.48     36.48    -20.52     20.33
   11.2738     36.93     36.52    -21.12     20.33
   11.2840     36.66     36.57    -21.44     20.33
   11.2941     37.74     36.62    -20.41     20.33
   11.3043     37.25     36.67    -20.95     20.33
   11.3145     36.60     36.72    -21.65     20.33
   11.3246     37.15     36.77    -21.14     20.33
   11.3348     38.09     36.82    -20.25     20.33
   11.3449     36.79     36.87    -21.60     20.33
   11.3551     37.10     36.92    -21.34     20.33
   11.3653     37.60     36.97    -20.89     20.33
   11.3754     37.40     37.02    -21.14     20.33
   11.3856     37.51     37.07    -21.09     20.33
   11.3958     37.55     37.12    -21.10     20.33
   11.4059     37.75     37.17    -20.95     20.33
   11.4161     37.16     37.22    -21.59     20.33
   11.4263     37.49     37.28    -21.31     20.33
   11.4364     37.79     37.33    -21.06     20.33
   11.4466     37.87     37.38    -21.03     20.34
   11.4568     38.09     37.43    -20.86     20.34
   11.4669     36.96     37.48    -22.05     20.34
   11.4771     37.88     37.53    -21.18     20.34
   11.4873     38.03     37.59    -21.08     20.34
   11.4974     37.64     37.64    -21.52     20.34
   11.5076     37.61     37.69    -21.60     20.34
   11.5177     38.26     37.74    -21.01     20.34
   11.5279     37.27     37.79    -22.05     20.34
   11.5381     38.24     37.85    -21.13     20.34
   11.5482     38.47     37.90    -20.95     20.34
   11.5584     38.39     37.95    -21.09     20.34
   11.5686     37.84     38.01    -21.69     20.34
   11.5787     38.51     38.06    -21.07     20.34
   11.5889     38.48     38.11    -21.16     20.34
   11.5991     38.16     38.17    -21.53     20.34
   11.6092     37.84     38.22    -21.91     20.34
   11.6194     38.07     38.28    -21.73     20.34
   11.6296     37.74     38.33    -22.11     20.34
   11.6397     38.91     38.39    -21.00     20.34
   11.6499     37.54     38.44    -22.42     20.34
   11.6600     38.23     38.49    -21.79     20.34
   11.6702     38.45     38.55    -21.62     20.34
   11.6804     38.95     38.60    -21.18     20.34
   11.6905     38.55     38.66    -21.63     20.34
   11.7007     38.68     38.72    -21.56     20.34
   11.7109     38.95     38.77    -21.34     20.34
   11.7210     38.45     38.83    -21.90     20.34
   11.7312     39.52     38.88    -20.89     20.34
   11.7414     39.16     38.94    -21.30     20.34
   11.7515     38.16     38.99    -22.36     20.34
   11.7617     38.55     39.05    -22.03     20.34
   11.7719     39.22     39.11    -21.41     20.34
   11.7820     38.87     39.16    -21.82     20.34
   11.7922     38.76     39.22    -21.99     20.34
   11.8023     38.41     39.28    -22.39     20.34
   11.8125     38.43     39.34    -22.43     20.34
   11.8227     39.74     39.39    -21.18     20.34
   11.8328     39.35     39.45    -21.62     20.34
   11.8430     39.22     39.51    -21.81     20.34
   11.8532     39.00     39.57    -22.09     20.34
   11.8633     39.15     39.62    -22.00     20.34
   11.8735     39.39     39.68    -21.82     20.34
   11.8837     39.73     39.74    -21.53     20.34
   11.8938     39.43     39.80    -21.89     20.34
   11.9040     40.18     39.86    -21.20     20.34
   11.9142     39.29     39.92    -22.15     20.34
   11.9243     39.58     39.98    -21.92     20.34
   11.9345     39.62     40.03    -21.94     20.34
   11.9447     39.56     40.09    -22.06     20.34
   11.9548     39.89     40.15    -21.79     20.34
   11.9650     40.11     40.21    -21.63     20.34
   11.9751     39.28     40.27    -22.52     20.34
   11.9853     40.71     40.33    -21.15     20.34
   11.9955     40.75     40.39    -21.17     20.34
   12.0056     40.38     40.45    -21.60     20.34
   12.0158     40.70     40.51    -21.34     20.34
   12.0260     39.71     40.58    -22.39     20.34
   12.0361     40.13     40.64    -22.03     20.34
   12.0463     40.52     40.70    -21.70     20.34
   12.0565     39.46     40.76    -22.82     20.34
   12.0666     40.37     40.82    -21.97     20.34
   12.0768     40.34     40.88    -22.07     20.34
   12.0870     40.12     40.94    -22.35     20.34
   12.0971     40.18     41.00    -22.35     20.34
   12.1073     39.77     41.07    -22.82     20.34
   12.1174     41.18     41.13    -21.47     20.34
   12.1276     40.87     41.19    -21.85     20.34
   12.1378     40.48     41.25    -22.30     20.34
   12.1479     42.02     41.32    -20.82     20.35
   12.1581     41.13     41.38    -21.77     20.35
   12.1683     41.30     41.44    -21.67     20.35
   12.1784     41.32     41.51    -21.71     20.35
   12.1886     41.24     41.57    -21.85     20.35
   12.1988     40.51     41.63    -22.65     20.35
   12.2089     40.87     41.70    -22.35     20.35
   12.2191     41.60     41.76    -21.69     20.35
   12.2293     42.18     41.83    -21.17     20.35
   12.2394     40.27     41.89    -23.14     20.35
   12.2496     41.50     41.95    -21.98     20.35
   12.2598     41.01     42.02    -22.53     20.35
   12.2699     41.40     42.08    -22.21     20.35
   12.2801     40.99     42.15    -22.68     20.35
   12.2902     42.09     42.21    -21.65     20.35
   12.3004     43.01     42.28    -20.79     20.35
   12.3106     42.49     42.35    -21.38     20.35
   12.3207     41.83     42.41    -22.10     20.35
   12.3309     42.20     42.48    -21.80     20.35
   12.3411     42.46     42.54    -21.61     20.35
   12.3512     42.49     42.61    -21.64     20.35
   12.3614     41.39     42.68    -22.81     20.35
   12.3716     41.73     42.74    -22.54     20.35
   12.3817     42.61     42.81    -21.72     20.35
   12.3919     41.41     42.88    -22.99     20.35
   12.4021     42.46     42.94    -22.01     20.35
   12.4122     41.76     43.01    -22.77     20.35
   12.4224     42.48     43.08    -22.12     20.35
   12.4325     42.93     43.15    -21.74     20.35
   12.4427     42.92     43.21    -21.82     20.35
   12.4529     41.63     43.28    -23.18     20.35
   12.4630     42.64     43.35    -22.23     20.35
   12.4732     43.21     43.42    -21.73     20.35
   12.4834     43.68     43.49    -21.33     20.35
   12.4935     42.33     43.56    -22.75     20.35
   12.5037     43.17     43.62    -21.98     20.35
   12.5139     43.18     43.69    -22.04     20.35
   12.5240     42.99     43.76    -22.30     20.35
   12.5342     44.00     43.83    -21.36     20.35
   12.5444     42.60     43.90    -22.83     20.35
   12.5545     44.78     43.97    -20.72     20.35
   12.5647     43.83     44.04    -21.74     20.35
   12.5749     43.61     44.11    -22.03     20.35
   12.5850     44.59     44.18    -21.12     20.35
   12.5952     43.08     44.25    -22.70     20.35
   12.6053     43.13     44.32    -22.72     20.35
   12.6155     44.15     44.39    -21.77     20.35
   12.6257     42.69     44.47    -23.30     20.35
   12.6358     43.47     44.54    -22.59     20.35
   12.6460     44.37     44.61    -21.76     20.35
   12.6562     44.70     44.68    -21.50     20.35
   12.6663     44.25     44.75    -22.03     20.35
   12.6765     44.24     44.82    -22.11     20.35
   12.6867     43.73     44.90    -22.69     20.35
   12.6968     44.20     44.97    -22.29     20.35
   12.7070     44.75     45.04    -21.81     20.35
   12.7172     44.98     45.11    -21.66     20.35
   12.7273     44.45     45.19    -22.26     20.35
   12.7375     43.83     45.26    -22.95     20.35
   12.7476     45.23     45.33    -21.63     20.35
   12.7578     45.15     45.41    -21.78     20.35
   12.7680     44.40     45.48    -22.60     20.35
   12.7781     44.87     45.55    -22.21     20.35
   12.7883     45.22     45.63    -21.93     20.35
   12.7985     44.87     45.70    -22.36     20.35
   12.8086     46.37     45.78    -20.93     20.35
   12.8188     44.95     45.85    -22.43     20.35
   12.8290     44.98     45.93    -22.47     20.35
   12.8391     45.01     46.00    -22.51     20.35
   12.8493     45.09     46.08    -22.51     20.36
   12.8595     45.96     46.15    -21.72     20.36
   12.8696     45.76     46.23    -21.99     20.36
   12.8798     45.62     46.30    -22.21     20.36
   12.8900     45.60     46.38    -22.30     20.36
   12.9001     46.01     46.45    -21.97     20.36
   12.9103     45.56     46.53    -22.50     20.36
   12.9204     46.21     46.61    -21.92     20.36
   12.9306     45.26     46.68    -22.95     20.36
   12.9408     45.98     46.76    -22.31     20.36
   12.9509     45.77     46.84    -22.59     20.36
   12.9611     45.74     46.92    -22.70     20.36
   12.9713     45.80     46.99    -22.72     20.36
   12.9814     47.27     47.07    -21.32     20.36
   12.9916     46.01     47.15    -22.66     20.36
   13.0018     47.16     47.23    -21.59     20.36
   13.0119     46.96     47.30    -21.87     20.36
   13.0221     46.68     47.38    -22.23     20.36
   13.0323     46.40     47.46    -22.59     20.36
   13.0424     47.24     47.54    -21.82     20.36
   13.0526     46.61     47.62    -22.53     20.36
   13.0627     46.41     47.70    -22.81     20.36
   13.0729     47.46     47.78    -21.84     20.36
   13.0831     47.41     47.86    -21.97     20.36
   13.0932     47.63     47.94    -21.83     20.36
   13.1034     47.77     48.02    -21.77     20.36
   13.1136     47.52     48.10    -22.10     20.36
   13.1237     47.60     48.18    -22.10     20.36
   13.1339     46.44     48.26    -23.34     20.36
   13.1441     47.95     48.34    -21.91     20.36
   13.1542     47.88     48.42    -22.06     20.36
   13.1644     47.49     48.50    -22.53     20.36
   13.1746     48.06     48.58    -22.05     20.36
   13.1847     47.92     48.66    -22.27     20.36
   13.1949     48.29     48.75    -21.98     20.36
   13.2051     47.39     48.83    -22.96     20.36
   13.2152     46.51     48.91    -23.92     20.36
   13.2254     47.70     48.99    -22.82     20.36
   13.2355     48.73     49.07    -21.87     20.36
   13.2457     49.35     49.16    -21.33     20.36
   13.2559     49.07     49.24    -21.69     20.36
   13.2660     48.91     49.32    -21.94     20.36
   13.2762     48.95     49.41    -21.98     20.36
   13.2864     48.20     49.49    -22.81     20.36
   13.2965     48.59     49.57    -22.51     20.36
   13.3067     49.08     49.66    -22.10     20.36
   13.3169     49.67     49.74    -21.60     20.36
   13.3270     49.25     49.82    -22.10     20.36
   13.3372     48.52     49.91    -22.91     20.36
   13.3474     49.73     49.99    -21.79     20.36
   13.3575     49.74     50.08    -21.86     20.36
   13.3677     50.19     50.16    -21.50     20.36
   13.3778     49.27     50.25    -22.50     20.36
   13.3880     49.16     50.34    -22.70     20.36
   13.3982     50.17     50.42    -21.78     20.36
   13.4083     50.52     50.51    -21.51     20.36
   13.4185     49.34     50.59    -22.78     20.36
   13.4287     50.52     50.68    -21.68     20.36
   13.4388     50.93     50.77    -21.36     20.36
   13.4490     50.54     50.85    -21.84     20.36
   13.4592     48.86     50.94    -23.60     20.36
   13.4693     50.33     51.03    -22.22     20.36
   13.4795     49.89     51.11    -22.75     20.36
   13.4897     49.63     51.20    -23.10     20.36
   13.4998     49.85     51.29    -22.96     20.36
   13.5100     51.41     51.38    -21.49     20.36
   13.5201     50.87     51.47    -22.12     20.36
   13.5303     51.70     51.55    -21.38     20.36
   13.5405     50.08     51.64    -23.09     20.36
   13.5506     51.46     51.73    -21.80     20.36
   13.5608     51.16     51.82    -22.18     20.37
   13.5710     51.73     51.91    -21.70     20.37
   13.5811     51.49     52.00    -22.03     20.37
   13.5913     51.30     52.09    -22.31     20.37
   13.6015     52.22     52.18    -21.48     20.37
   13.6116     52.13     52.27    -21.66     20.37
   13.6218     51.70     52.36    -22.18     20.37
   13.6320     51.00     52.45    -22.97     20.37
   13.6421     51.09     52.54    -22.98     20.37
   13.6523     53.80     52.63    -20.36     20.37
   13.6625     51.87     52.72    -22.38     20.37
   13.6726     52.37     52.81    -21.97     20.37
   13.6828     51.82     52.91    -22.61     20.37
   13.6929     53.15     53.00    -21.37     20.37
   13.7031     51.95     53.09    -22.66     20.37
   13.7133     52.97     53.18    -21.74     20.37
   13.7234     52.40     53.28    -22.40     20.37
   13.7336     52.62     53.37    -22.27     20.37
   13.7438     52.89     53.46    -22.10     20.37
   13.7539     52.96     53.56    -22.12     20.37
   13.7641     53.68     53.65    -21.49     20.37
   13.7743     52.60     53.74    -22.67     20.37
   13.7844     51.94     53.84    -23.42     20.37
   13.7946     54.11     53.93    -21.35     20.37
   13.8048     53.18     54.03    -22.37     20.37
   13.8149     53.34     54.12    -22.30     20.37
   13.8251     54.71     54.22    -21.03     20.37
   13.8352     53.74     54.31    -22.09     20.37
   13.8454     55.10     54.41    -20.83     20.37
   13.8556     53.57     54.50    -22.46     20.37
   13.8657     53.89     54.60    -22.23     20.37
   13.8759     54.91     54.69    -21.31     20.37
   13.8861     55.63     54.79    -20.69     20.37
   13.8962     54.64     54.89    -21.77     20.37
   13.9064     54.74     54.98    -21.77     20.37
   13.9166     54.87     55.08    -21.74     20.37
   13.9267     55.72     55.18    -20.98     20.37
   13.9369     55.26     55.28    -21.54     20.37
   13.9471     55.91     55.38    -20.99     20.37
   13.9572     56.11     55.47    -20.89     20.37
   13.9674     54.88     55.57    -22.22     20.37
   13.9776     55.53     55.67    -21.67     20.37
   13.9877     55.89     55.77    -21.40     20.37
   13.9979     55.38     55.87    -22.01     20.37
   14.0080     56.59     55.97    -20.90     20.37
   14.0182     55.52     56.07    -22.07     20.37
   14.0284     55.98     56.17    -21.71     20.37
   14.0385     56.29     56.27    -21.50     20.37
   14.0487     55.74     56.37    -22.15     20.37
   14.0589     56.12     56.47    -21.88     20.37
   14.0690     57.14     56.57    -20.96     20.37
   14.0792     57.59     56.67    -20.61     20.37
   14.0894     56.13     56.78    -22.17     20.37
   14.0995     56.28     56.88    -22.12     20.37
   14.1097     56.74     56.98    -21.76     20.37
   14.1199     56.01     57.08    -22.60     20.37
   14.1300     57.38     57.19    -21.33     20.37
   14.1402     58.20     57.29    -20.61     20.37
   14.1503     56.36     57.39    -22.56     20.37
   14.1605     58.07     57.50    -20.95     20.37
   14.1707     57.16     57.60    -21.96     20.37
   14.1808     58.50     57.70    -20.73     20.37
   14.1910     56.40     57.81    -22.93     20.37
   14.2012     57.41     57.91    -22.03     20.37
   14.2113     58.12     58.02    -21.42     20.37
   14.2215     58.58     58.13    -21.07     20.37
   14.2317     57.26     58.23    -22.50     20.37
   14.2418     58.11     58.34    -21.75     20.37
   14.2520     59.49     58.44    -20.48     20.37
   14.2622     58.93     58.55    -21.15     20.38
   14.2723     58.48     58.66    -21.70     20.38
   14.2825     59.71     58.77    -20.58     20.38
   14.2927     59.31     58.88    -21.09     20.38
   14.3028     58.38     58.98    -22.13     20.38
   14.3130     60.40     59.09    -20.22     20.38
   14.3231     58.42     59.20    -22.30     20.38
   14.3333     59.39     59.31    -21.44     20.38
   14.3435     59.46     59.42    -21.48     20.38
   14.3536     60.56     59.53    -20.49     20.38
   14.3638     60.66     59.64    -20.50     20.38
   14.3740     60.15     59.75    -21.12     20.38
   14.3841     59.69     59.86    -21.70     20.38
   14.3943     61.20     59.97    -20.30     20.38
   14.4045     60.09     60.09    -21.52     20.38
   14.4146     60.76     60.20    -20.96     20.38
   14.4248     59.70     60.31    -22.13     20.38
   14.4350     60.77     60.42    -21.18     20.38
   14.4451     61.27     60.54    -20.79     20.38
   14.4553     60.58     60.65    -21.59     20.38
   14.4654     61.96     60.76    -20.33     20.38
   14.4756     60.24     60.88    -22.16     20.38
   14.4858     61.08     60.99    -21.44     20.38
   14.4959     62.45     61.11    -20.18     20.38
   14.5061     62.39     61.22    -20.36     20.38
   14.5163     61.85     61.34    -21.01     20.38
   14.5264     63.28     61.46    -19.70     20.38
   14.5366     62.97     61.57    -20.13     20.38
   14.5468     61.03     61.69    -22.18     20.38
   14.5569     62.14     61.81    -21.19     20.38
   14.5671     61.76     61.93    -21.69     20.38
   14.5773     61.71     62.05    -21.86     20.38
   14.5874     63.19     62.16    -20.50     20.38
   14.5976     62.96     62.28    -20.85     20.38
   14.6078     63.66     62.40    -20.27     20.38
   14.6179     63.76     62.52    -20.29     20.38
   14.6281     62.20     62.64    -21.97     20.38
   14.6382     63.04     62.76    -21.25     20.38
   14.6484     65.22     62.89    -19.19     20.38
   14.6586     64.25     63.01    -20.28     20.38
   14.6687     64.32     63.13    -20.33     20.38
   14.6789     64.74     63.25    -20.04     20.38
   14.6891     64.23     63.38    -20.67     20.38
   14.6992     64.21     63.50    -20.82     20.38
   14.7094     63.48     63.63    -21.67     20.38
   14.7196     64.62     63.75    -20.66     20.38
   14.7297     65.85     63.88    -19.55     20.38
   14.7399     64.57     64.00    -20.96     20.38
   14.7501     64.67     64.13    -20.98     20.38
   14.7602     65.80     64.26    -19.98     20.38
   14.7704     65.43     64.38    -20.48     20.38
   14.7805     64.81     64.51    -21.22     20.38
   14.7907     65.80     64.64    -20.36     20.38
   14.8009     67.11     64.77    -19.18     20.38
   14.8110     64.30     64.90    -22.12     20.38
   14.8212     65.62     65.03    -20.93     20.38
   14.8314     68.16     65.16    -18.52     20.38
   14.8415     66.94     65.29    -19.87     20.38
   14.8517     66.13     65.42    -20.82     20.38
   14.8619     66.48     65.55    -20.60     20.38
   14.8720     67.26     65.69    -19.95     20.38
   14.8822     66.82     65.82    -20.52     20.38
   14.8924     68.57     65.95    -18.91     20.38
   14.9025     67.49     66.09    -20.12     20.38
   14.9127     65.88     66.22    -21.87     20.38
   14.9229     67.24     66.36    -20.64     20.38
   14.9330     66.38     66.49    -21.64     20.38
   14.9432     67.54     66.63    -20.62     20.38
   14.9533     67.60     66.77    -20.69     20.38
   14.9635     67.38     66.91    -21.05     20.39
   14.9737     67.87     67.05    -20.70     20.39
   14.9838     68.40     67.18    -20.31     20.39
   14.9940     67.31     67.32    -21.54     20.39
   15.0042     70.02     67.47    -18.97     20.39
   15.0143     68.38     67.61    -20.75     20.39
   15.0245     68.68     67.75    -20.59     20.39
   15.0347     69.46     67.89    -19.96     20.39
   15.0448     69.32     68.03    -20.24     20.39
   15.0550     70.49     68.18    -19.21     20.39
   15.0652     69.62     68.32    -20.23     20.39
   15.0753     69.08     68.47    -20.91     20.39
   15.0855     69.93     68.61    -20.21     20.39
   15.0956     69.51     68.76    -20.77     20.39
   15.1058     70.74     68.91    -19.69     20.39
   15.1160     71.41     69.05    -19.17     20.39
   15.1261     70.65     69.20    -20.07     20.39
   15.1363     69.95     69.35    -20.92     20.39
   15.1465     71.29     69.50    -19.73     20.39
   15.1566     70.91     69.65    -20.26     20.39
   15.1668     71.85     69.80    -19.48     20.39
   15.1770     72.21     69.95    -19.27     20.39
   15.1871     72.49     70.11    -19.14     20.39
   15.1973     72.44     70.26    -19.34     20.39
   15.2075     72.22     70.41    -19.72     20.39
   15.2176     70.81     70.57    -21.28     20.39
   15.2278     70.93     70.72    -21.32     20.39
   15.2380     70.23     70.88    -22.17     20.39
   15.2481     72.13     71.04    -20.43     20.39
   15.2583     73.02     71.19    -19.70     20.39
   15.2684     72.14     71.35    -20.74     20.39
   15.2786     72.86     71.51    -20.18     20.39
   15.2888     73.21     71.67    -19.99     20.39
   15.2989     72.48     71.83    -20.88     20.39
   15.3091     74.84     71.99    -18.68     20.39
   15.3193     73.65     72.16    -20.03     20.39
   15.3294     74.55     72.32    -19.29     20.39
   15.3396     72.80     72.48    -21.21     20.39
   15.3498     75.00     72.65    -19.17     20.39
   15.3599     74.20     72.81    -20.14     20.39
   15.3701     75.74     72.98    -18.76     20.39
   15.3803     74.19     73.15    -20.48     20.39
   15.3904     73.94     73.31    -20.90     20.39
   15.4006     73.98     73.48    -21.03     20.39
   15.4107     76.77     73.65    -18.40     20.39
   15.4209     75.56     73.82    -19.79     20.39
   15.4311     76.06     73.99    -19.46     20.39
   15.4412     77.16     74.16    -18.53     20.39
   15.4514     76.38     74.34    -19.48     20.39
   15.4616     76.46     74.51    -19.57     20.39
   15.4717     77.54     74.68    -18.67     20.39
   15.4819     75.35     74.86    -21.03     20.39
   15.4921     77.49     75.04    -19.07     20.39
   15.5022     76.25     75.21    -20.49     20.39
   15.5124     75.29     75.39    -21.62     20.39
   15.5226     76.41     75.57    -20.68     20.39
   15.5327     77.36     75.75    -19.91     20.39
   15.5429     76.89     75.93    -20.56     20.39
   15.5530     77.91     76.11    -19.72     20.39
   15.5632     78.66     76.29    -19.16     20.39
   15.5734     77.98     76.47    -20.02     20.39
   15.5835     79.32     76.66    -18.86     20.39
   15.5937     78.60     76.84    -19.77     20.39
   15.6039     78.49     77.03    -20.06     20.39
   15.6140     78.76     77.21    -19.98     20.39
   15.6242     79.66     77.40    -19.27     20.39
   15.6344     80.02     77.59    -19.09     20.39
   15.6445     79.13     77.78    -20.17     20.39
   15.6547     81.12     77.97    -18.37     20.39
   15.6649     79.31     78.16    -20.37     20.39
   15.6750     81.60     78.35    -18.27     20.40
   15.6852     79.79     78.54    -20.28     20.40
   15.6954     80.69     78.74    -19.57     20.40
   15.7055     79.40     78.93    -21.05     20.40
   15.7157     80.91     79.13    -19.74     20.40
   15.7258     81.10     79.32    -19.74     20.40
   15.7360     81.35     79.52    -19.69     20.40
   15.7462     80.69     79.72    -20.55     20.40
   15.7563     80.60     79.91    -20.84     20.40
   15.7665     81.33     80.11    -20.31     20.40
   15.7767     81.91     80.32    -19.93     20.40
   15.7868     82.52     80.52    -19.52     20.40
   15.7970     80.06     80.72    -22.18     20.40
   15.8072     83.45     80.92    -19.00     20.40
   15.8173     82.83     81.12    -19.82     20.40
   15.8275     82.13     81.33    -20.72     20.40
   15.8377     82.65     81.54    -20.41     20.40
   15.8478     84.08     81.74    -19.19     20.40
   15.8580     82.75     81.95    -20.72     20.40
   15.8681     83.29     82.16    -20.39     20.40
   15.8783     84.04     82.37    -19.85     20.40
   15.8885     84.90     82.58    -19.20     20.40
   15.8986     83.30     82.79    -21.01     20.40
   15.9088     85.70     83.00    -18.82     20.40
   15.9190     84.37     83.21    -20.37     20.40
   15.9291     85.47     83.42    -19.48     20.40
   15.9393     84.63     83.64    -20.53     20.40
   15.9495     83.76     83.85    -21.62     20.40
   15.9596     85.48     84.07    -20.11     20.40
   15.9698     84.73     84.29    -21.08     20.40
   15.9800     86.31     84.51    -19.72     20.40
   15.9901     85.63     84.72    -20.62     20.40
   16.0003     85.61     84.94    -20.86     20.40
   16.0105     85.05     85.16    -21.64     20.40
   16.0206     86.63     85.38    -20.28     20.40
   16.0308     86.88     85.61    -20.25     20.40
   16.0409     86.70     85.83    -20.65     20.40
   16.0511     87.55     86.05    -20.02     20.40
   16.0613     87.16     86.28    -20.64     20.40
   16.0714     87.20     86.50    -20.82     20.40
   16.0816     87.91     86.73    -20.34     20.40
   16.0918     87.99     86.95    -20.49     20.40
   16.1019     88.59     87.18    -20.11     20.40
   16.1121     88.01     87.41    -20.92     20.40
   16.1223     87.32     87.64    -21.84     20.40
   16.1324     87.84     87.87    -21.55     20.40
   16.1426     90.74     88.10    -18.88     20.40
   16.1528     89.06     88.33    -20.79     20.40
   16.1629     88.33     88.56    -21.75     20.40
   16.1731     89.27     88.79    -21.05     20.40
   16.1832     90.13     89.02    -20.42     20.40
   16.1934     89.90     89.26    -20.88     20.40
   16.2036     89.82     89.49    -21.20     20.40
   16.2137     90.35     89.73    -20.90     20.40
   16.2239     89.53     89.96    -21.96     20.40
   16.2341     90.64     90.20    -21.09     20.40
   16.2442     92.32     90.44    -19.64     20.40
   16.2544     91.09     90.68    -21.11     20.40
   16.2646     92.04     90.92    -20.40     20.40
   16.2747     91.61     91.15    -21.07     20.40
   16.2849     91.49     91.39    -21.43     20.40
   16.2951     92.34     91.63    -20.82     20.40
   16.3052     92.36     91.87    -21.04     20.40
   16.3154     94.01     92.12    -19.63     20.40
   16.3256     92.40     92.36    -21.48     20.40
   16.3357     92.21     92.60    -21.91     20.40
   16.3459     93.63     92.84    -20.74     20.40
   16.3560     93.60     93.09    -21.01     20.40
   16.3662     93.14     93.33    -21.72     20.40
   16.3764     93.15     93.58    -21.95     20.41
   16.3865     95.56     93.82    -19.79     20.41
   16.3967     93.81     94.07    -21.78     20.41
   16.4069     94.54     94.31    -21.30     20.41
   16.4170     94.04     94.56    -22.04     20.41
   16.4272     94.84     94.81    -21.49     20.41
   16.4374     95.36     95.06    -21.22     20.41
   16.4475     96.86     95.30    -19.97     20.41
   16.4577     95.09     95.55    -21.99     20.41
   16.4679     97.13     95.80    -20.19     20.41
   16.4780     97.63     96.05    -19.94     20.41
   16.4882     97.66     96.30    -20.16     20.41
   16.4983     97.26     96.55    -20.81     20.41
   16.5085     98.87     96.80    -19.45     20.41
   16.5187     98.71     97.05    -19.86     20.41
   16.5288     96.30     97.30    -22.52     20.41
   16.5390     99.49     97.55    -19.58     20.41
   16.5492     98.91     97.80    -20.41     20.41
   16.5593     97.68     98.05    -21.89     20.41
   16.5695     98.76     98.30    -21.07     20.41
   16.5797     98.59     98.56    -21.49     20.41
   16.5898     98.60     98.81    -21.73     20.41
   16.6000     99.56     99.06    -21.02     20.41
   16.6102     98.93     99.31    -21.91     20.41
   16.6203    100.78     99.56    -20.31     20.41
   16.6305    102.32     99.81    -19.02     20.41
   16.6407     99.77    100.07    -21.82     20.41
   16.6508    100.84    100.32    -21.00     20.41
   16.6610    102.17    100.57    -19.93     20.41
   16.6711    100.34    100.82    -22.01     20.41
   16.6813    101.35    101.08    -21.25     20.41
   16.6915     99.91    101.33    -22.94     20.41
   16.7016    102.77    101.58    -20.33     20.41
   16.7118    100.81    101.83    -22.55     20.41
   16.7220    102.27    102.09    -21.34     20.41
   16.7321    101.68    102.34    -22.18     20.41
   16.7423    101.01    102.59    -23.10     20.41
   16.7525    103.49    102.84    -20.88     20.41
   16.7626    102.74    103.09    -21.88     20.41
   16.7728    102.02    103.34    -22.85     20.41
   16.7830    102.44    103.60    -22.68     20.41
   16.7931    104.07    103.85    -21.30     20.41
   16.8033    103.62    104.10    -22.00     20.41
   16.8134    104.30    104.35    -21.57     20.41
   16.8236    103.80    104.60    -22.32     20.41
   16.8338    103.13    104.85    -23.24     20.41
   16.8439    104.06    105.09    -22.56     20.41
   16.8541    105.35    105.34    -21.52     20.41
   16.8643    104.66    105.59    -22.46     20.41
   16.8744    105.02    105.84    -22.34     20.41
   16.8846    105.68    106.09    -21.93     20.41
   16.8948    105.47    106.34    -22.39     20.41
   16.9049    106.49    106.58    -21.62     20.41
   16.9151    106.51    106.83    -21.84     20.41
   16.9253    106.95    107.08    -21.65     20.41
   16.9354    107.31    107.32    -21.53     20.41
   16.9456    105.57    107.57    -23.52     20.41
   16.9558    106.84    107.81    -22.50     20.41
   16.9659    107.32    108.05    -22.26     20.41
   16.9761    104.99    108.30    -24.83     20.41
   16.9862    107.32    108.54    -22.74     20.41
   16.9964    107.70    108.78    -22.61     20.41
   17.0066    106.80    109.02    -23.75     20.41
   17.0167    107.05    109.26    -23.74     20.41
   17.0269    108.63    109.50    -22.40     20.41
   17.0371    108.64    109.74    -22.63     20.41
   17.0472    108.23    109.98    -23.28     20.41
   17.0574    109.26    110.22    -22.49     20.41
   17.0676    109.51    110.46    -22.47     20.41
   17.0777    110.52    110.70    -21.70     20.42
   17.0879    111.07    110.93    -21.39     20.42
   17.0981    107.59    111.17    -25.10     20.42
   17.1082    109.54    111.40    -23.39     20.42
   17.1184    111.29    111.64    -21.87     20.42
   17.1285    109.87    111.87    -23.53     20.42
   17.1387    109.88    112.11    -23.75     20.42
   17.1489    110.24    112.34    -23.63     20.42
   17.1590    109.49    112.57    -24.61     20.42
   17.1692    111.58    112.81    -22.75     20.42
   17.1794    112.21    113.04    -22.35     20.42
   17.1895    111.07    113.27    -23.72     20.42
   17.1997    111.61    113.50    -23.42     20.42
   17.2099    112.52    113.73    -22.74     20.42
   17.2200    112.04    113.96    -23.45     20.42
   17.2302    113.04    114.19    -22.68     20.42
   17.2404    111.22    114.43    -24.73     20.42
   17.2505    113.46    114.66    -22.72     20.42
   17.2607    114.51    114.89    -21.90     20.42
   17.2709    112.96    115.12    -23.68     20.42
   17.2810    114.71    115.35    -22.16     20.42
   17.2912    113.52    115.58    -23.59     20.42
   17.3013    115.51    115.81    -21.83     20.42
   17.3115    115.94    116.05    -21.63     20.42
   17.3217    115.32    116.28    -22.49     20.42
   17.3318    114.48    116.52    -23.56     20.42
   17.3420    116.28    116.76    -22.00     20.42
   17.3522    116.07    116.99    -22.45     20.42
   17.3623    115.95    117.23    -22.81     20.42
   17.3725    114.41    117.47    -24.59     20.42
   17.3827    115.73    117.72    -23.51     20.42
   17.3928    118.49    117.96    -21.00     20.42
   17.4030    116.29    118.21    -23.45     20.42
   17.4132    117.39    118.46    -22.60     20.42
   17.4233    117.84    118.71    -22.40     20.42
   17.4335    117.18    118.97    -23.32     20.42
   17.4436    117.04    119.23    -23.71     20.42
   17.4538    118.87    119.50    -22.15     20.42
   17.4640    119.55    119.77    -21.74     20.42
   17.4741    119.80    120.04    -21.76     20.42
   17.4843    120.80    120.31    -21.04     20.42
   17.4945    120.73    120.60    -21.39     20.42
   17.5046    119.96    120.89    -22.45     20.42
   17.5148    120.59    121.18    -22.12     20.42
   17.5250    120.69    121.48    -22.32     20.42
   17.5351    121.71    121.79    -21.60     20.42
   17.5453    122.75    122.11    -20.88     20.42
   17.5555    122.25    122.43    -21.70     20.42
   17.5656    121.80    122.76    -22.48     20.42
   17.5758    124.26    123.10    -20.37     20.42
   17.5859    123.33    123.45    -21.64     20.42
   17.5961    124.57    123.81    -20.77     20.42
   17.6063    125.90    124.18    -19.81     20.42
   17.6164    125.13    124.56    -20.96     20.42
   17.6266    126.99    124.96    -19.49     20.42
   17.6368    127.15    125.36    -19.74     20.42
   17.6469    126.80    125.78    -20.51     20.42
   17.6571    125.79    126.22    -21.95     20.42
   17.6673    127.13    126.66    -21.06     20.42
   17.6774    127.32    127.12    -21.33     20.42
   17.6876    128.01    127.60    -21.12     20.42
   17.6978    128.41    128.10    -21.21     20.42
   17.7079    127.79    128.61    -22.34     20.42
   17.7181    129.07    129.14    -21.59     20.42
   17.7283    130.69    129.69    -20.52     20.42
   17.7384    130.50    130.25    -21.27     20.42
   17.7486    130.47    130.84    -21.89     20.42
   17.7587    131.91    131.44    -21.06     20.42
   17.7689    130.20    132.07    -23.40     20.42
   17.7791    132.80    132.73    -21.45     20.42
   17.7892    134.73    133.40    -20.19     20.43
   17.7994    134.05    134.10    -21.57     20.43
   17.8096    134.26    134.82    -22.09     20.43
   17.8197    135.80    135.57    -21.29     20.43
   17.8299    137.04    136.34    -20.83     20.43
   17.8401    136.63    137.15    -22.04     20.43
   17.8502    138.49    137.97    -21.00     20.43
   17.8604    140.15    138.82    -20.20     20.43
   17.8706    139.45    139.71    -21.79     20.43
   17.8807    139.57    140.62    -22.57     20.43
   17.8909    141.12    141.56    -21.97     20.43
   17.9010    140.90    142.53    -23.15     20.43
   17.9112    142.70    143.54    -22.36     20.43
   17.9214    142.31    144.57    -23.79     20.43
   17.9315    143.59    145.63    -23.57     20.43
   17.9417    146.87    146.73    -21.39     20.43
   17.9519    146.18    147.87    -23.21     20.43
   17.9620    148.29    149.02    -22.25     20.43
   17.9722    150.65    150.22    -21.09     20.43
   17.9824    148.48    151.45    -24.49     20.43
   17.9925    151.31    152.70    -22.92     20.43
   18.0027    150.66    154.00    -24.87     20.43
   18.0129    153.52    155.33    -23.34     20.43
   18.0230    154.99    156.68    -23.22     20.43
   18.0332    155.45    158.08    -24.16     20.43
   18.0434    157.86    159.51    -23.18     20.43
   18.0535    157.42    160.96    -25.06     20.43
   18.0637    160.96    162.45    -23.02     20.43
   18.0738    160.65    163.97    -24.84     20.43
   18.0840    163.32    165.52    -23.73     20.43
   18.0942    167.32    167.11    -21.31     20.43
   18.1043    163.39    168.71    -26.84     20.43
   18.1145    166.41    170.36    -25.47     20.43
   18.1247    169.01    172.03    -24.54     20.43
   18.1348    171.19    173.71    -24.05     20.43
   18.1450    171.49    175.44    -25.47     20.43
   18.1552    174.68    177.19    -24.04     20.43
   18.1653    176.54    178.95    -23.93     20.43
   18.1755    174.65    180.74    -27.62     20.43
   18.1857    179.72    182.56    -24.36     20.43
   18.1958    182.57    184.38    -23.33     20.43
   18.2060    182.35    186.23    -25.40     20.43
   18.2161    186.34    188.07    -23.26     20.43
   18.2263    186.77    189.95    -24.70     20.43
   18.2365    185.72    191.84    -27.64     20.43
   18.2466    192.68    193.72    -22.56     20.43
   18.2568    194.20    195.62    -22.94     20.43
   18.2670    193.76    197.52    -25.29     20.43
   18.2771    197.30    199.41    -23.63     20.43
   18.2873    201.71    201.31    -21.13     20.43
   18.2975    202.10    203.21    -22.63     20.43
   18.3076    204.29    205.08    -22.31     20.43
   18.3178    209.32    206.95    -19.16     20.43
   18.3280    205.65    208.81    -24.69     20.43
   18.3381    211.84    210.64    -20.32     20.43
   18.3483    214.70    212.46    -19.28     20.43
   18.3585    213.51    214.25    -22.26     20.43
   18.3686    219.82    215.99    -17.70     20.43
   18.3788    219.47    217.72    -19.77     20.43
   18.3889    221.38    219.39    -19.53     20.43
   18.3991    225.99    221.03    -16.57     20.43
   18.4093    225.86    222.63    -18.29     20.43
   18.4194    227.24    224.16    -18.44     20.43
   18.4296    231.53    225.64    -15.64     20.43
   18.4398    232.85    227.07    -15.74     20.43
   18.4499    230.35    228.41    -19.59     20.43
   18.4601    235.86    229.70    -15.37     20.43
   18.4703    235.82    230.92    -16.62     20.43
   18.4804    235.69    232.05    -17.88     20.43
   18.4906    237.76    233.10    -16.86     20.44
   18.5008    241.31    234.07    -14.28     20.44
   18.5109    239.36    234.93    -17.10     20.44
   18.5211    244.74    235.72    -12.50     20.44
   18.5312    245.26    236.40    -12.66     20.44
   18.5414    239.86    236.98    -18.65     20.44
   18.5516    244.51    237.47    -14.48     20.44
   18.5617    244.13    237.84    -15.23     20.44
   18.5719    241.97    238.11    -17.67     20.44
   18.5821    242.77    238.28    -17.03     20.44
   18.5922    244.23    238.33    -15.63     20.44
   18.6024    244.35    238.28    -15.45     20.44
   18.6126    244.55    238.12    -15.09     20.44
   18.6227    242.10    237.85    -17.27     20.44
   18.6329    242.98    237.47    -16.02     20.44
   18.6431    240.43    236.99    -18.08     20.44
   18.6532    241.59    236.41    -16.34     20.44
   18.6634    238.99    235.72    -18.25     20.44
   18.6736    236.15    234.93    -20.30     20.44
   18.6837    236.82    234.05    -18.76     20.44
   18.6939    233.01    233.08    -21.59     20.44
   18.7040    230.93    232.02    -22.62     20.44
   18.7142    229.57    230.87    -22.83     20.44
   18.7244    227.12    229.64    -24.04     20.44
   18.7345    227.74    228.34    -22.13     20.44
   18.7447    225.91    226.96    -22.58     20.44
   18.7549    222.38    225.51    -24.66     20.44
   18.7650    220.00    224.01    -25.54     20.44
   18.7752    220.54    222.44    -23.43     20.44
   18.7854    217.20    220.81    -25.14     20.44
   18.7955    215.97    219.15    -24.71     20.44
   18.8057    215.27    217.43    -23.69     20.44
   18.8159    207.05    215.67    -30.14     20.44
   18.8260    208.42    213.89    -26.99     20.44
   18.8362    206.82    212.05    -26.76     20.44
   18.8463    202.90    210.21    -28.83     20.44
   18.8565    202.33    208.33    -27.52     20.44
   18.8667    203.54    206.42    -24.40     20.44
   18.8768    198.07    204.52    -27.97     20.44
   18.8870    195.80    202.58    -28.31     20.44
   18.8972    195.40    200.64    -26.76     20.44
   18.9073    190.92    198.71    -29.31     20.44
   18.9175    190.80    196.76    -27.48     20.44
   18.9277    189.12    194.81    -27.21     20.44
   18.9378    185.76    192.88    -28.64     20.44
   18.9480    183.56    190.93    -28.90     20.44
   18.9582    182.95    189.00    -27.57     20.44
   18.9683    181.79    187.10    -26.83     20.44
   18.9785    179.35    185.19    -27.36     20.44
   18.9887    176.82    183.30    -28.00     20.44
   18.9988    176.88    181.44    -26.08     20.44
   19.0090    174.65    179.59    -26.46     20.44
   19.0191    173.60    177.77    -25.70     20.44
   19.0293    168.96    175.96    -28.53     20.44
   19.0395    170.29    174.18    -25.42     20.44
   19.0496    169.20    172.44    -24.77     20.44
   19.0598    165.35    170.72    -26.89     20.44
   19.0700    167.06    169.02    -23.48     20.44
   19.0801    164.91    167.37    -23.98     20.44
   19.0903    164.46    165.73    -22.80     20.44
   19.1005    160.92    164.13    -24.73     20.44
   19.1106    162.68    162.58    -21.42     20.44
   19.1208    160.41    161.05    -22.16     20.44
   19.1310    159.59    159.55    -21.48     20.44
   19.1411    157.09    158.10    -22.53     20.44
   19.1513    157.15    156.68    -21.05     20.44
   19.1614    155.16    155.30    -21.67     20.44
   19.1716    155.10    153.95    -20.38     20.44
   19.1818    153.74    152.64    -20.43     20.44
   19.1919    154.73    151.38    -18.17     20.45
   19.2021    153.79    150.14    -17.88     20.45
   19.2123    152.37    148.95    -18.10     20.45
   19.2224    154.51    147.80    -14.81     20.45
   19.2326    150.63    146.68    -17.58     20.45
   19.2428    148.77    145.60    -18.35     20.45
   19.2529    148.43    144.57    -17.66     20.45
   19.2631    148.90    143.56    -16.19     20.45
   19.2733    146.99    142.59    -17.13     20.45
   19.2834    145.96    141.67    -17.24     20.45
   19.2936    145.80    140.78    -16.50     20.45
   19.3038    144.57    139.93    -16.88     20.45
   19.3139    144.30    139.11    -16.34     20.45
   19.3241    145.28    138.33    -14.57     20.45
   19.3342    142.83    137.59    -16.28     20.45
   19.3444    143.23    136.88    -15.17     20.45
   19.3546    142.71    136.20    -15.01     20.45
   19.3647    140.82    135.56    -16.26     20.45
   19.3749    141.70    134.95    -14.77     20.45
   19.3851    140.31    134.37    -15.58     20.45
   19.3952    141.57    133.83    -13.78     20.45
   19.4054    141.60    133.31    -13.24     20.45
   19.4156    139.43    132.83    -14.92     20.45
   19.4257    139.10    132.38    -14.80     20.45
   19.4359    139.19    131.95    -14.29     20.45
   19.4461    138.05    131.56    -15.03     20.45
   19.4562    137.27    131.19    -15.44     20.45
   19.4664    138.49    130.85    -13.88     20.45
   19.4765    137.93    130.54    -14.13     20.45
   19.4867    135.45    130.25    -16.32     20.45
   19.4969    137.87    129.99    -13.64     20.45
   19.5070    135.66    129.75    -15.61     20.45
   19.5172    136.47    129.53    -14.59     20.45
   19.5274    135.28    129.34    -15.59     20.45
   19.5375    133.18    129.17    -17.52     20.45
   19.5477    133.87    129.03    -16.68     20.45
   19.5579    134.48    128.90    -15.94     20.45
   19.5680    135.08    128.80    -15.24     20.45
   19.5782    134.73    128.71    -15.50     20.45
   19.5884    133.75    128.64    -16.42     20.45
   19.5985    132.74    128.59    -17.38     20.45
   19.6087    132.81    128.56    -17.28     20.45
   19.6188    134.72    128.55    -15.36     20.45
   19.6290    132.11    128.56    -17.97     20.45
   19.6392    133.88    128.58    -16.22     20.45
   19.6493    132.85    128.61    -17.28     20.45
   19.6595    133.48    128.66    -16.70     20.45
   19.6697    133.13    128.73    -17.12     20.45
   19.6798    133.67    128.80    -16.66     20.45
   19.6900    133.35    128.90    -17.07     20.45
   19.7002    133.10    129.00    -17.42     20.45
   19.7103    131.15    129.12    -19.49     20.45
   19.7205    133.32    129.24    -17.45     20.45
   19.7307    132.59    129.39    -18.32     20.45
   19.7408    133.14    129.53    -17.92     20.45
   19.7510    132.06    129.70    -19.16     20.45
   19.7612    131.13    129.87    -20.26     20.45
   19.7713    132.28    130.04    -19.29     20.45
   19.7815    132.77    130.23    -18.99     20.45
   19.7916    131.97    130.43    -19.98     20.45
   19.8018    131.23    130.63    -20.93     20.45
   19.8120    131.41    130.85    -20.96     20.45
   19.8221    131.74    131.06    -20.85     20.45
   19.8323    132.25    131.29    -20.57     20.45
   19.8425    132.40    131.52    -20.65     20.45
   19.8526    133.07    131.76    -20.21     20.45
   19.8628    132.43    132.00    -21.10     20.45
   19.8730    131.11    132.25    -22.66     20.45
   19.8831    130.52    132.50    -23.50     20.45
   19.8933    132.28    132.76    -22.00     20.45
   19.9035    132.24    133.02    -22.30     20.46
   19.9136    130.19    133.28    -24.61     20.46
   19.9238    133.05    133.54    -22.01     20.46
   19.9339    132.02    133.81    -23.31     20.46
   19.9441    130.50    134.07    -25.10     20.46
   19.9543    132.29    134.34    -23.58     20.46
   19.9644    133.26    134.61    -22.88     20.46
   19.9746    132.20    134.88    -24.21     20.46
   19.9848    134.38    135.15    -22.30     20.46
   19.9949    132.99    135.42    -23.95     20.46
   20.0051    132.86    135.69    -24.35     20.46
   20.0153    133.40    135.96    -24.08     20.46
   20.0254    134.35    136.22    -23.39     20.46
   20.0356    132.70    136.48    -25.31     20.46
   20.0458    132.33    136.74    -25.94     20.46
   20.0559    134.04    137.00    -24.48     20.46
   20.0661    133.23    137.25    -25.54     20.46
   20.0763    135.90    137.49    -23.12     20.46
   20.0864    135.24    137.73    -24.02     20.46
   20.0966    133.65    137.97    -25.84     20.46
   20.1067    133.27    138.20    -26.45     20.46
   20.1169    134.35    138.42    -25.60     20.46
   20.1271    133.44    138.64    -26.72     20.46
   20.1372    136.15    138.85    -24.22     20.46
   20.1474    134.34    139.05    -26.23     20.46
   20.1576    135.37    139.24    -25.40     20.46
   20.1677    137.04    139.42    -23.91     20.46
   20.1779    135.29    139.60    -25.83     20.46
   20.1881    134.32    139.76    -26.97     20.46
   20.1982    135.51    139.91    -25.93     20.46
   20.2084    135.38    140.06    -26.20     20.46
   20.2186    135.54    140.19    -26.17     20.46
   20.2287    136.29    140.31    -25.54     20.46
   20.2389    136.62    140.42    -25.32     20.46
   20.2490    136.61    140.51    -25.42     20.46
   20.2592    136.84    140.59    -25.28     20.46
   20.2694    137.20    140.66    -24.99     20.46
   20.2795    136.61    140.72    -25.63     20.46
   20.2897    137.30    140.76    -24.99     20.46
   20.2999    137.77    140.79    -24.54     20.46
   20.3100    135.60    140.81    -26.73     20.46
   20.3202    138.43    140.81    -23.90     20.46
   20.3304    137.94    140.79    -24.38     20.46
   20.3405    137.57    140.76    -24.72     20.46
   20.3507    139.55    140.72    -22.69     20.46
   20.3609    137.95    140.66    -24.24     20.46
   20.3710    138.11    140.59    -24.01     20.46
   20.3812    137.12    140.51    -24.91     20.46
   20.3914    140.06    140.40    -21.87     20.46
   20.4015    137.90    140.29    -23.91     20.46
   20.4117    139.63    140.16    -22.05     20.46
   20.4218    140.35    140.02    -21.19     20.46
   20.4320    140.07    139.86    -21.31     20.46
   20.4422    140.00    139.69    -21.21     20.46
   20.4523    139.21    139.50    -21.82     20.46
   20.4625    138.75    139.31    -22.08     20.46
   20.4727    137.57    139.09    -23.05     20.46
   20.4828    138.66    138.87    -21.74     20.46
   20.4930    138.98    138.64    -21.18     20.46
   20.5032    138.98    138.39    -20.93     20.46
   20.5133    139.73    138.13    -19.93     20.46
   20.5235    138.53    137.86    -20.86     20.46
   20.5337    138.89    137.58    -20.22     20.46
   20.5438    138.80    137.29    -20.02     20.46
   20.5540    136.76    136.99    -21.76     20.46
   20.5641    137.16    136.69    -21.05     20.46
   20.5743    140.04    136.37    -17.85     20.46
   20.5845    136.78    136.04    -20.79     20.46
   20.5946    139.46    135.71    -17.77     20.46
   20.6048    137.35    135.37    -19.54     20.47
   20.6150    137.64    135.02    -18.90     20.47
   20.6251    138.19    134.67    -18.00     20.47
   20.6353    136.06    134.31    -19.77     20.47
   20.6455    135.25    133.94    -20.22     20.47
   20.6556    136.24    133.57    -18.86     20.47
   20.6658    135.36    133.20    -19.36     20.47
   20.6760    135.13    132.82    -19.21     20.47
   20.6861    134.60    132.44    -19.36     20.47
   20.6963    133.80    132.05    -19.78     20.47
   20.7065    133.96    131.66    -19.23     20.47
   20.7166    134.49    131.28    -18.31     20.47
   20.7268    133.73    130.89    -18.68     20.47
   20.7369    131.49    130.50    -20.53     20.47
   20.7471    135.49    130.10    -16.13     20.47
   20.7573    132.30    129.71    -18.93     20.47
   20.7674    129.80    129.31    -21.04     20.47
   20.7776    131.84    128.92    -18.60     20.47
   20.7878    132.06    128.53    -17.99     20.47
   20.7979    130.07    128.14    -19.59     20.47
   20.8081    130.34    127.75    -18.93     20.47
   20.8183    131.43    127.36    -17.45     20.47
   20.8284    127.92    126.97    -20.58     20.47
   20.8386    127.66    126.59    -20.45     20.47
   20.8488    126.99    126.21    -20.74     20.47
   20.8589    127.93    125.83    -19.43     20.47
   20.8691    126.48    125.46    -20.50     20.47
   20.8792    127.94    125.09    -18.68     20.47
   20.8894    127.29    124.73    -18.96     20.47
   20.8996    126.12    124.37    -19.77     20.47
   20.9097    125.03    124.01    -20.51     20.47
   20.9199    124.62    123.66    -20.57     20.47
   20.9301    124.81    123.32    -20.03     20.47
   20.9402    124.54    122.98    -19.96     20.47
   20.9504    123.13    122.64    -21.04     20.47
   20.9606    125.54    122.32    -18.30     20.47
   20.9707    121.86    122.00    -21.66     20.47
   20.9809    121.27    121.68    -21.94     20.47
   20.9911    122.21    121.38    -20.69     20.47
   21.0012    123.35    121.08    -19.25     20.47
   21.0114    121.37    120.79    -20.94     20.47
   21.0216    120.62    120.50    -21.41     20.47
   21.0317    122.61    120.23    -19.14     20.47
   21.0419    121.58    119.96    -19.90     20.47
   21.0520    121.13    119.70    -20.09     20.47
   21.0622    120.80    119.45    -20.17     20.47
   21.0724    118.52    119.21    -22.21     20.47
   21.0825    119.61    118.97    -20.89     20.47
   21.0927    119.59    118.75    -20.68     20.47
   21.1029    118.62    118.53    -21.44     20.47
   21.1130    118.64    118.33    -21.21     20.47
   21.1232    119.15    118.13    -20.51     20.47
   21.1334    118.27    117.95    -21.20     20.47
   21.1435    116.54    117.77    -22.76     20.47
   21.1537    118.30    117.61    -20.83     20.47
   21.1639    116.60    117.45    -22.38     20.47
   21.1740    118.36    117.31    -20.47     20.47
   21.1842    118.49    117.18    -20.21     20.47
   21.1943    116.17    117.05    -22.41     20.47
   21.2045    117.06    116.94    -21.41     20.47
   21.2147    118.21    116.84    -20.16     20.47
   21.2248    115.95    116.75    -22.33     20.47
   21.2350    115.77    116.67    -22.43     20.47
   21.2452    116.12    116.61    -22.01     20.47
   21.2553    117.01    116.55    -21.07     20.47
   21.2655    115.74    116.51    -22.29     20.47
   21.2757    115.61    116.48    -22.39     20.47
   21.2858    116.49    116.46    -21.49     20.47
   21.2960    115.14    116.45    -22.83     20.47
   21.3062    116.14    116.45    -21.84     20.48
   21.3163    114.69    116.47    -23.30     20.48
   21.3265    118.04    116.50    -19.98     20.48
   21.3366    116.72    116.54    -21.34     20.48
   21.3468    115.63    116.59    -22.49     20.48
   21.3570    116.09    116.66    -22.09     20.48
   21.3671    116.40    116.74    -21.86     20.48
   21.3773    113.80    116.83    -24.55     20.48
   21.3875    115.91    116.93    -22.54     20.48
   21.3976    115.85    117.05    -22.72     20.48
   21.4078    116.42    117.17    -22.28     20.48
   21.4180    118.35    117.31    -20.49     20.48
   21.4281    117.98    117.47    -21.01     20.48
   21.4383    115.69    117.63    -23.47     20.48
   21.4485    116.65    117.81    -22.69     20.48
   21.4586    117.29    118.00    -22.23     20.48
   21.4688    114.51    118.20    -25.22     20.48
   21.4790    118.23    118.42    -21.71     20.48
   21.4891    118.43    118.65    -21.74     20.48
   21.4993    117.09    118.89    -23.32     20.48
   21.5094    117.18    119.14    -23.48     20.48
   21.5196    117.05    119.41    -23.88     20.48
   21.5298    117.32    119.68    -23.89     20.48
   21.5399    117.65    119.97    -23.84     20.48
   21.5501    118.16    120.27    -23.64     20.48
   21.5603    118.43    120.59    -23.68     20.48
   21.5704    119.09    120.91    -23.34     20.48
   21.5806    120.92    121.25    -21.85     20.48
   21.5908    119.47    121.60    -23.65     20.48
   21.6009    118.99    121.96    -24.49     20.48
   21.6111    119.99    122.33    -23.86     20.48
   21.6213    120.30    122.71    -23.94     20.48
   21.6314    120.77    123.10    -23.86     20.48
   21.6416    122.54    123.51    -22.49     20.48
   21.6517    121.32    123.92    -24.12     20.48
   21.6619    124.08    124.35    -21.79     20.48
   21.6721    122.99    124.78    -23.32     20.48
   21.6822    121.91    125.22    -24.84     20.48
   21.6924    124.24    125.68    -22.97     20.48
   21.7026    125.27    126.15    -22.40     20.48
   21.7127    124.10    126.62    -24.04     20.48
   21.7229    126.90    127.10    -21.73     20.48
   21.7331    127.36    127.59    -21.76     20.48
   21.7432    127.26    128.09    -22.36     20.48
   21.7534    128.10    128.60    -22.02     20.48
   21.7636    128.77    129.12    -21.87     20.48
   21.7737    128.01    129.64    -23.15     20.48
   21.7839    130.81    130.17    -20.88     20.48
   21.7941    132.62    130.71    -19.61     20.48
   21.8042    129.85    131.25    -22.92     20.48
   21.8144    133.84    131.80    -19.48     20.48
   21.8245    133.70    132.35    -20.17     20.48
   21.8347    132.48    132.91    -21.95     20.48
   21.8449    135.06    133.48    -19.94     20.48
   21.8550    134.38    134.04    -21.18     20.48
   21.8652    134.71    134.61    -21.43     20.48
   21.8754    137.60    135.19    -19.12     20.48
   21.8855    139.45    135.77    -17.84     20.48
   21.8957    135.67    136.35    -22.20     20.48
   21.9059    140.41    136.93    -18.05     20.48
   21.9160    140.34    137.51    -18.70     20.48
   21.9262    139.82    138.10    -19.80     20.48
   21.9364    140.73    138.68    -19.48     20.48
   21.9465    141.87    139.26    -18.92     20.48
   21.9567    141.12    139.85    -20.25     20.48
   21.9668    142.39    140.42    -19.56     20.48
   21.9770    143.31    141.00    -19.22     20.48
   21.9872    142.59    141.58    -20.51     20.48
   21.9973    145.03    142.14    -18.64     20.48
   22.0075    144.21    142.71    -20.03     20.48
   22.0177    144.15    143.27    -20.65     20.49
   22.0278    144.63    143.82    -20.72     20.49
   22.0380    145.37    144.37    -20.53     20.49
   22.0482    145.32    144.91    -21.12     20.49
   22.0583    147.49    145.44    -19.48     20.49
   22.0685    148.85    145.97    -18.64     20.49
   22.0787    147.08    146.48    -20.92     20.49
   22.0888    147.87    146.98    -20.63     20.49
   22.0990    150.45    147.47    -18.54     20.49
   22.1092    146.52    147.95    -22.95     20.49
   22.1193    149.38    148.41    -20.55     20.49
   22.1295    151.15    148.86    -19.24     20.49
   22.1396    147.91    149.29    -22.91     20.49
   22.1498    151.57    149.71    -19.67     20.49
   22.1600    151.17    150.12    -20.47     20.49
   22.1701    151.34    150.50    -20.68     20.49
   22.1803    152.12    150.87    -20.27     20.49
   22.1905    151.27    151.21    -21.47     20.49
   22.2006    151.62    151.54    -21.44     20.49
   22.2108    152.14    151.85    -21.23     20.49
   22.2210    154.55    152.13    -19.11     20.49
   22.2311    151.01    152.39    -22.91     20.49
   22.2413    152.84    152.63    -21.32     20.49
   22.2515    154.84    152.85    -19.53     20.49
   22.2616    153.12    153.04    -21.44     20.49
   22.2718    153.98    153.21    -20.75     20.49
   22.2819    154.10    153.35    -20.77     20.49
   22.2921    153.01    153.46    -21.98     20.49
   22.3023    154.15    153.55    -20.93     20.49
   22.3124    155.48    153.61    -19.66     20.49
   22.3226    153.31    153.65    -21.86     20.49
   22.3328    155.47    153.65    -19.71     20.49
   22.3429    154.13    153.63    -21.03     20.49
   22.3531    153.11    153.58    -22.00     20.49
   22.3633    153.49    153.51    -21.54     20.49
   22.3734    154.95    153.40    -19.98     20.49
   22.3836    153.40    153.27    -21.39     20.49
   22.3938    151.55    153.11    -23.08     20.49
   22.4039    152.88    152.92    -21.56     20.49
   22.4141    152.52    152.70    -21.70     20.49
   22.4243    151.88    152.45    -22.10     20.49
   22.4344    152.29    152.18    -21.41     20.49
   22.4446    152.88    151.88    -20.52     20.49
   22.4547    152.12    151.55    -20.96     20.49
   22.4649    151.45    151.20    -21.27     20.49
   22.4751    146.84    150.82    -25.50     20.49
   22.4852    148.42    150.42    -23.52     20.49
   22.4954    148.38    149.99    -23.13     20.49
   22.5056    148.18    149.53    -22.87     20.49
   22.5157    149.54    149.06    -21.04     20.49
   22.5259    146.76    148.55    -23.32     20.49
   22.5361    146.91    148.03    -22.64     20.49
   22.5462    146.32    147.49    -22.69     20.49
   22.5564    146.09    146.92    -22.36     20.49
   22.5666    144.42    146.34    -23.44     20.49
   22.5767    146.73    145.74    -20.53     20.49
   22.5869    144.43    145.12    -22.21     20.49
   22.5970    143.90    144.48    -22.10     20.49
   22.6072    142.70    143.82    -22.65     20.49
   22.6174    144.02    143.15    -20.65     20.49
   22.6275    141.76    142.47    -22.23     20.49
   22.6377    141.67    141.77    -21.62     20.49
   22.6479    140.05    141.05    -22.52     20.49
   22.6580    137.62    140.33    -24.23     20.49
   22.6682    139.02    139.59    -22.09     20.49
   22.6784    137.69    138.84    -22.67     20.49
   22.6885    136.50    138.08    -23.11     20.49
   22.6987    137.24    137.31    -21.60     20.49
   22.7089    136.46    136.53    -21.60     20.49
   22.7190    134.13    135.75    -23.15     20.50
   22.7292    134.68    134.96    -21.80     20.50
   22.7394    132.23    134.16    -23.45     20.50
   22.7495    131.53    133.36    -23.35     20.50
   22.7597    132.90    132.55    -21.17     20.50
   22.7698    130.42    131.74    -22.85     20.50
   22.7800    129.63    130.92    -22.82     20.50
   22.7902    129.06    130.10    -22.57     20.50
   22.8003    128.43    129.28    -22.38     20.50
   22.8105    125.51    128.46    -24.47     20.50
   22.8207    127.18    127.63    -21.98     20.50
   22.8308    124.49    126.81    -23.85     20.50
   22.8410    124.40    125.98    -23.11     20.50
   22.8512    123.00    125.16    -23.68     20.50
   22.8613    123.63    124.34    -22.23     20.50
   22.8715    121.88    123.51    -23.16     20.50
   22.8817    123.30    122.69    -20.91     20.50
   22.8918    122.87    121.88    -20.53     20.50
   22.9020    119.91    121.06    -22.67     20.50
   22.9121    121.46    120.25    -20.32     20.50
   22.9223    119.88    119.44    -21.08     20.50
   22.9325    118.51    118.63    -21.65     20.50
   22.9426    117.15    117.84    -22.21     20.50
   22.9528    117.05    117.04    -21.51     20.50
   22.9630    115.40    116.25    -22.37     20.50
   22.9731    117.09    115.47    -19.90     20.50
   22.9833    115.97    114.68    -20.24     20.50
   22.9935    113.97    113.91    -21.46     20.50
   23.0036    113.68    113.15    -20.99     20.50
   23.0138    112.96    112.38    -20.95     20.50
   23.0240    109.99    111.63    -23.16     20.50
   23.0341    111.12    110.88    -21.29     20.50
   23.0443    111.87    110.14    -19.80     20.50
   23.0545    108.41    109.41    -22.52     20.50
   23.0646    110.57    108.69    -19.64     20.50
   23.0748    109.19    107.97    -20.30     20.50
   23.0849    108.20    107.26    -20.59     20.50
   23.0951    108.02    106.56    -20.06     20.50
   23.1053    106.34    105.86    -21.05     20.50
   23.1154    105.48    105.18    -21.23     20.50
   23.1256    106.57    104.50    -19.46     20.50
   23.1358    105.05    103.83    -20.31     20.50
   23.1459    103.29    103.18    -21.41     20.50
   23.1561    105.32    102.52    -18.73     20.50
   23.1663    103.60    101.88    -19.81     20.50
   23.1764    102.49    101.25    -20.29     20.50
   23.1866    102.52    100.63    -19.63     20.50
   23.1968    101.52    100.01    -20.01     20.50
   23.2069    101.98     99.41    -18.95     20.50
   23.2171    100.99     98.81    -19.34     20.50
   23.2272    100.09     98.22    -19.66     20.50
   23.2374     98.17     97.64    -21.00     20.50
   23.2476     97.95     97.07    -20.64     20.50
   23.2577     98.48     96.51    -19.56     20.50
   23.2679     97.34     95.96    -20.14     20.50
   23.2781     97.43     95.41    -19.51     20.50
   23.2882     95.66     94.88    -20.75     20.50
   23.2984     95.48     94.36    -20.40     20.50
   23.3086     95.46     93.84    -19.90     20.50
   23.3187     94.82     93.33    -20.04     20.50
   23.3289     96.45     92.83    -17.91     20.50
   23.3391     94.92     92.34    -18.95     20.50
   23.3492     94.30     91.86    -19.09     20.50
   23.3594     93.77     91.39    -19.14     20.50
   23.3695     92.82     90.93    -19.63     20.50
   23.3797     92.17     90.47    -19.82     20.50
   23.3899     91.46     90.02    -20.08     20.50
   23.4000     90.74     89.58    -20.37     20.50
   23.4102     90.45     89.15    -20.22     20.50
   23.4204     89.81     88.73    -20.44     20.51
   23.4305     89.24     88.31    -20.60     20.51
   23.4407     89.95     87.90    -19.48     20.51
   23.4509     88.59     87.50    -20.43     20.51
   23.4610     88.59     87.11    -20.04     20.51
   23.4712     87.93     86.72    -20.32     20.51
   23.4814     87.93     86.34    -19.94     20.51
   23.4915     86.99     85.97    -20.51     20.51
   23.5017     88.13     85.61    -19.00     20.51
   23.5119     86.16     85.25    -20.61     20.51
   23.5220     85.77     84.90    -20.66     20.51
   23.5322     86.32     84.56    -19.76     20.51
   23.5423     84.73     84.22    -21.02     20.51
   23.5525     85.20     83.89    -20.21     20.51
   23.5627     84.72     83.56    -20.37     20.51
   23.5728     84.71     83.25    -20.06     20.51
   23.5830     84.23     82.93    -20.23     20.51
   23.5932     83.87     82.63    -20.28     20.51
   23.6033     81.51     82.33    -22.34     20.51
   23.6135     83.41     82.03    -20.15     20.51
   23.6237     83.61     81.74    -19.66     20.51
   23.6338     82.74     81.46    -20.24     20.51
   23.6440     80.38     81.18    -22.32     20.51
   23.6542     80.63     80.90    -21.80     20.51
   23.6643     80.79     80.64    -21.37     20.51
   23.6745     81.96     80.37    -19.94     20.51
   23.6846     81.48     80.11    -20.16     20.51
   23.6948     79.16     79.86    -22.22     20.51
   23.7050     79.94     79.61    -21.19     20.51
   23.7151     78.71     79.36    -22.18     20.51
   23.7253     79.06     79.12    -21.58     20.51
   23.7355     79.98     78.88    -20.42     20.51
   23.7456     78.35     78.65    -21.82     20.51
   23.7558     78.00     78.42    -21.94     20.51
   23.7660     78.48     78.19    -21.24     20.51
   23.7761     78.37     77.97    -21.12     20.51
   23.7863     77.49     77.75    -21.79     20.51
   23.7965     76.44     77.54    -22.62     20.51
   23.8066     77.59     77.33    -21.26     20.51
   23.8168     76.94     77.12    -21.70     20.51
   23.8270     75.35     76.91    -23.08     20.51
   23.8371     77.71     76.71    -20.52     20.51
   23.8473     74.69     76.51    -23.34     20.51
   23.8574     75.60     76.31    -22.24     20.51
   23.8676     74.41     76.12    -23.23     20.51
   23.8778     74.09     75.93    -23.36     20.51
   23.8879     76.05     75.74    -21.22     20.51
   23.8981     74.18     75.56    -22.90     20.51
   23.9083     73.37     75.37    -23.53     20.51
   23.9184     74.34     75.19    -22.38     20.51
   23.9286     73.23     75.01    -23.31     20.51
   23.9388     74.23     74.84    -22.13     20.51
   23.9489     72.62     74.66    -23.57     20.51
   23.9591     72.15     74.49    -23.86     20.51
   23.9693     73.53     74.32    -22.31     20.51
   23.9794     72.88     74.15    -22.80     20.51
   23.9896     73.36     73.99    -22.15     20.51
   23.9997     72.46     73.82    -22.89     20.51
   24.0099     71.87     73.66    -23.31     20.51
   24.0201     72.28     73.50    -22.74     20.51
   24.0302     71.65     73.34    -23.21     20.51
   24.0404     70.70     73.18    -24.01     20.51
   24.0506     70.74     73.03    -23.81     20.51
   24.0607     72.15     72.87    -22.25     20.51
   24.0709     72.67     72.72    -21.57     20.51
   24.0811     70.43     72.57    -23.66     20.51
   24.0912     70.54     72.42    -23.40     20.51
   24.1014     70.26     72.27    -23.53     20.51
   24.1116     70.04     72.12    -23.60     20.51
   24.1217     69.16     71.97    -24.34     20.51
   24.1319     70.11     71.83    -23.24     20.52
   24.1421     70.78     71.68    -22.43     20.52
   24.1522     70.03     71.54    -23.04     20.52
   24.1624     69.11     71.40    -23.81     20.52
   24.1725     67.60     71.26    -25.18     20.52
   24.1827     68.25     71.12    -24.39     20.52
   24.1929     67.74     70.98    -24.76     20.52
   24.2030     69.27     70.84    -23.10     20.52
   24.2132     68.40     70.70    -23.83     20.52
   24.2234     68.68     70.57    -23.41     20.52
   24.2335     67.02     70.43    -24.94     20.52
   24.2437     67.74     70.30    -24.08     20.52
   24.2539     67.03     70.16    -24.66     20.52
   24.2640     67.73     70.03    -23.83     20.52
   24.2742     67.04     69.90    -24.38     20.52
   24.2844     67.12     69.77    -24.17     20.52
   24.2945     65.77     69.64    -25.39     20.52
   24.3047     66.15     69.51    -24.88     20.52
   24.3148     67.26     69.38    -23.64     20.52
   24.3250     65.91     69.25    -24.86     20.52
   24.3352     65.62     69.12    -25.03     20.52
   24.3453     67.48     69.00    -23.04     20.52
   24.3555     65.71     68.87    -24.68     20.52
   24.3657     65.18     68.74    -25.09     20.52
   24.3758     66.12     68.62    -24.02     20.52
   24.3860     65.16     68.49    -24.86     20.52
   24.3962     65.50     68.37    -24.39     20.52
   24.4063     64.46     68.24    -25.31     20.52
   24.4165     65.49     68.12    -24.15     20.52
   24.4267     63.85     68.00    -25.67     20.52
   24.4368     65.87     67.88    -23.53     20.52
   24.4470     64.27     67.75    -25.01     20.52
   24.4572     63.70     67.63    -25.46     20.52
   24.4673     65.12     67.51    -23.92     20.52
   24.4775     64.18     67.39    -24.74     20.52
   24.4876     64.03     67.27    -24.77     20.52
   24.4978     63.96     67.15    -24.72     20.52
   24.5080     63.84     67.03    -24.72     20.52
   24.5181     64.37     66.92    -24.07     20.52
   24.5283     63.34     66.80    -24.98     20.52
   24.5385     63.57     66.68    -24.63     20.52
   24.5486     64.50     66.56    -23.59     20.52
   24.5588     63.49     66.45    -24.48     20.52
   24.5690     63.57     66.33    -24.28     20.52
   24.5791     64.09     66.21    -23.65     20.52
   24.5893     63.20     66.10    -24.42     20.52
   24.5995     63.74     65.98    -23.77     20.52
   24.6096     63.66     65.87    -23.73     20.52
   24.6198     62.24     65.75    -25.04     20.52
   24.6299     62.25     65.64    -24.91     20.52
   24.6401     63.25     65.53    -23.80     20.52
   24.6503     62.62     65.41    -24.32     20.52
   24.6604     63.61     65.30    -23.21     20.52
   24.6706     61.90     65.19    -24.81     20.52
   24.6808     62.29     65.07    -24.31     20.52
   24.6909     62.20     64.96    -24.29     20.52
   24.7011     61.99     64.85    -24.38     20.52
   24.7113     62.62     64.74    -23.64     20.52
   24.7214     61.28     64.63    -24.87     20.52
   24.7316     60.92     64.52    -25.12     20.52
   24.7418     61.54     64.41    -24.39     20.52
   24.7519     61.84     64.30    -23.98     20.52
   24.7621     62.07     64.19    -23.64     20.52
   24.7723     60.82     64.08    -24.78     20.52
   24.7824     61.52     63.97    -23.97     20.52
   24.7926     61.86     63.86    -23.53     20.52
   24.8027     60.63     63.75    -24.65     20.52
   24.8129     61.34     63.65    -23.83     20.52
   24.8231     60.45     63.54    -24.61     20.52
   24.8332     61.27     63.43    -23.69     20.53
   24.8434     60.40     63.32    -24.45     20.53
   24.8536     60.83     63.22    -23.91     20.53
   24.8637     60.18     63.11    -24.46     20.53
   24.8739     60.07     63.00    -24.46     20.53
   24.8841     59.91     62.90    -24.51     20.53
   24.8942     60.27     62.79    -24.05     20.53
   24.9044     59.38     62.69    -24.83     20.53
   24.9146     60.91     62.58    -23.20     20.53
   24.9247     59.92     62.48    -24.08     20.53
   24.9349     61.21     62.38    -22.69     20.53
   24.9450     60.30     62.27    -23.50     20.53
   24.9552     60.20     62.17    -23.49     20.53
   24.9654     60.43     62.06    -23.16     20.53
   24.9755     60.38     61.96    -23.11     20.53
   24.9857     59.01     61.86    -24.37     20.53
   24.9959     58.81     61.76    -24.47     20.53
   25.0060     59.10     61.65    -24.08     20.53
   25.0162     59.74     61.55    -23.34     20.53
   25.0264     58.82     61.45    -24.15     20.53
   25.0365     60.15     61.35    -22.72     20.53
   25.0467     58.89     61.25    -23.88     20.53
   25.0569     58.25     61.15    -24.42     20.53
   25.0670     58.06     61.05    -24.51     20.53
   25.0772     59.21     60.95    -23.26     20.53
   25.0874     59.29     60.85    -23.08     20.53
   25.0975     59.03     60.75    -23.24     20.53
   25.1077     57.72     60.65    -24.45     20.53
   25.1178     59.15     60.55    -22.92     20.53
   25.1280     58.46     60.45    -23.52     20.53
   25.1382     58.28     60.35    -23.60     20.53
   25.1483     59.18     60.26    -22.60     20.53
   25.1585     58.61     60.16    -23.07     20.53
   25.1687     58.33     60.06    -23.25     20.53
   25.1788     58.46     59.96    -23.03     20.53
   25.1890     58.18     59.87    -23.21     20.53
   25.1992     58.66     59.77    -22.63     20.53
   25.2093     58.98     59.67    -22.22     20.53
   25.2195     57.51     59.58    -23.59     20.53
   25.2297     57.92     59.48    -23.08     20.53
   25.2398     57.57     59.39    -23.34     20.53
   25.2500     57.30     59.29    -23.51     20.53
   25.2601     57.06     59.20    -23.66     20.53
   25.2703     58.30     59.10    -22.33     20.53
   25.2805     56.15     59.01    -24.38     20.53
   25.2906     56.75     58.91    -23.69     20.53
   25.3008     57.71     58.82    -22.63     20.53
   25.3110     55.90     58.73    -24.35     20.53
   25.3211     58.59     58.63    -21.57     20.53
   25.3313     57.59     58.54    -22.47     20.53
   25.3415     56.35     58.45    -23.62     20.53
   25.3516     57.95     58.35    -21.93     20.53
   25.3618     57.28     58.26    -22.51     20.53
   25.3720     57.10     58.17    -22.59     20.53
   25.3821     56.24     58.08    -23.36     20.53
   25.3923     56.54     57.99    -22.97     20.53
   25.4024     56.73     57.90    -22.69     20.53
   25.4126     58.01     57.81    -21.32     20.53
   25.4228     57.38     57.72    -21.86     20.53
   25.4329     56.24     57.63    -22.91     20.53
   25.4431     56.44     57.54    -22.62     20.53
   25.4533     57.17     57.45    -21.80     20.53
   25.4634     57.02     57.36    -21.86     20.53
   25.4736     55.76     57.27    -23.03     20.53
   25.4838     55.28     57.18    -23.42     20.53
   25.4939     56.35     57.09    -22.27     20.53
   25.5041     56.68     57.00    -21.85     20.53
   25.5143     55.79     56.92    -22.65     20.53
   25.5244     55.69     56.83    -22.66     20.53
   25.5346     56.09     56.74    -22.18     20.54
   25.5448     56.24     56.65    -21.94     20.54
   25.5549     57.65     56.57    -20.44     20.54
   25.5651     55.39     56.48    -22.62     20.54
   25.5752     55.81     56.40    -22.11     20.54
   25.5854     55.97     56.31    -21.86     20.54
   25.5956     56.27     56.22    -21.48     20.54
   25.6057     54.79     56.14    -22.87     20.54
   25.6159     56.63     56.05    -20.95     20.54
   25.6261     55.37     55.97    -22.12     20.54
   25.6362     54.57     55.89    -22.84     20.54
   25.6464     55.67     55.80    -21.66     20.54
   25.6566     55.72     55.72    -21.52     20.54
   25.6667     56.02     55.63    -21.14     20.54
   25.6769     55.43     55.55    -21.65     20.54
   25.6871     56.47     55.47    -20.52     20.54
   25.6972     54.66     55.39    -22.25     20.54
   25.7074     55.21     55.30    -21.62     20.54
   25.7175     54.47     55.22    -22.28     20.54
   25.7277     55.59     55.14    -21.08     20.54
   25.7379     54.78     55.06    -21.80     20.54
   25.7480     55.57     54.98    -20.93     20.54
   25.7582     55.26     54.90    -21.16     20.54
   25.7684     54.94     54.82    -21.40     20.54
   25.7785     55.59     54.74    -20.67     20.54
   25.7887     55.27     54.66    -20.91     20.54
   25.7989     54.73     54.58    -21.37     20.54
   25.8090     53.33     54.50    -22.69     20.54
   25.8192     54.91     54.42    -21.04     20.54
   25.8294     53.96     54.34    -21.91     20.54
   25.8395     53.16     54.26    -22.63     20.54
   25.8497     54.02     54.19    -21.69     20.54
   25.8599     54.02     54.11    -21.61     20.54
   25.8700     54.40     54.03    -21.16     20.54
   25.8802     53.16     53.96    -22.32     20.54
   25.8903     53.87     53.88    -21.53     20.54
   25.9005     53.31     53.80    -22.02     20.54
   25.9107     54.52     53.73    -20.73     20.54
   25.9208     54.18     53.65    -21.00     20.54
   25.9310     53.62     53.58    -21.48     20.54
   25.9412     53.46     53.50    -21.56     20.54
   25.9513     52.09     53.43    -22.86     20.54
   25.9615     52.80     53.35    -22.08     20.54
   25.9717     53.66     53.28    -21.14     20.54
   25.9818     52.99     53.21    -21.74     20.54
   25.9920     54.09     53.13    -20.57     20.54
   26.0022     53.19     53.06    -21.39     20.54
   26.0123     52.22     52.99    -22.29     20.54
   26.0225     53.10     52.91    -21.34     20.54
   26.0326     54.11     52.84    -20.26     20.54
   26.0428     52.87     52.77    -21.42     20.54
   26.0530     53.31     52.70    -20.91     20.54
   26.0631     53.14     52.63    -21.01     20.54
   26.0733     52.87     52.56    -21.21     20.54
   26.0835     52.66     52.49    -21.35     20.54
   26.0936     52.96     52.42    -20.98     20.54
   26.1038     53.34     52.35    -20.53     20.54
   26.1140     53.27     52.28    -20.53     20.54
   26.1241     51.90     52.21    -21.84     20.54
   26.1343     53.10     52.14    -20.57     20.54
   26.1445     53.66     52.08    -19.94     20.54
   26.1546     52.10     52.01    -21.43     20.54
   26.1648     52.24     51.94    -21.22     20.54
   26.1750     53.45     51.87    -19.95     20.54
   26.1851     52.14     51.81    -21.19     20.54
   26.1953     53.04     51.74    -20.23     20.54
   26.2054     51.88     51.68    -21.32     20.54
   26.2156     52.79     51.61    -20.35     20.54
   26.2258     52.25     51.55    -20.82     20.54
   26.2359     51.01     51.48    -22.00     20.54
   26.2461     51.74     51.42    -21.20     20.55
   26.2563     51.95     51.35    -20.93     20.55
   26.2664     51.77     51.29    -21.05     20.55
   26.2766     52.43     51.23    -20.32     20.55
   26.2868     52.13     51.17    -20.56     20.55
   26.2969     51.57     51.10    -21.06     20.55
   26.3071     51.29     51.04    -21.28     20.55
   26.3173     50.37     50.98    -22.14     20.55
   26.3274     52.15     50.92    -20.30     20.55
   26.3376     52.01     50.86    -20.38     20.55
   26.3477     50.91     50.80    -21.42     20.55
   26.3579     52.04     50.74    -20.23     20.55
   26.3681     51.48     50.68    -20.73     20.55
   26.3782     51.01     50.63    -21.14     20.55
   26.3884     51.63     50.57    -20.46     20.55
   26.3986     52.67     50.51    -19.37     20.55
   26.4087     50.20     50.46    -21.78     20.55
   26.4189     50.93     50.40    -20.99     20.55
   26.4291     52.01     50.34    -19.86     20.55
   26.4392     51.24     50.29    -20.57     20.55
   26.4494     51.01     50.23    -20.75     20.55
   26.4596     50.77     50.18    -20.93     20.55
   26.4697     51.17     50.13    -20.48     20.55
   26.4799     50.13     50.07    -21.47     20.55
   26.4901     50.54     50.02    -21.01     20.55
   26.5002     51.58     49.97    -19.91     20.55
   26.5104     50.77     49.92    -20.67     20.55
   26.5205     51.00     49.87    -20.39     20.55
   26.5307     50.98     49.82    -20.36     20.55
   26.5409     50.43     49.77    -20.86     20.55
   26.5510     50.43     49.72    -20.82     20.55
   26.5612     50.87     49.67    -20.33     20.55
   26.5714     50.40     49.63    -20.75     20.55
   26.5815     51.37     49.58    -19.73     20.55
   26.5917     51.57     49.53    -19.49     20.55
   26.6019     50.38     49.49    -20.63     20.55
   26.6120     50.70     49.44    -20.27     20.55
   26.6222     50.26     49.40    -20.66     20.55
   26.6324     51.18     49.36    -19.70     20.55
   26.6425     50.50     49.32    -20.34     20.55
   26.6527     50.05     49.27    -20.75     20.55
   26.6628     49.70     49.23    -21.06     20.55
   26.6730     51.40     49.19    -19.32     20.55
   26.6832     49.55     49.16    -21.13     20.55
   26.6933     50.44     49.12    -20.20     20.55
   26.7035     51.67     49.08    -18.93     20.55
   26.7137     49.48     49.04    -21.09     20.55
   26.7238     50.71     49.01    -19.82     20.55
   26.7340     50.67     48.97    -19.83     20.55
   26.7442     49.39     48.94    -21.07     20.55
   26.7543     50.46     48.91    -19.97     20.55
   26.7645     50.27     48.88    -20.13     20.55
   26.7747     49.63     48.84    -20.74     20.55
   26.7848     49.86     48.82    -20.48     20.55
   26.7950     49.49     48.79    -20.82     20.55
   26.8052     50.10     48.76    -20.18     20.55
   26.8153     49.77     48.73    -20.49     20.55
   26.8255     49.44     48.71    -20.79     20.55
   26.8356     51.26     48.68    -18.95     20.55
   26.8458     48.94     48.66    -21.24     20.55
   26.8560     48.99     48.64    -21.17     20.55
   26.8661     49.38     48.62    -20.76     20.55
   26.8763     50.12     48.60    -20.00     20.55
   26.8865     50.09     48.58    -20.01     20.55
   26.8966     49.91     48.56    -20.18     20.55
   26.9068     50.01     48.55    -20.06     20.55
   26.9170     49.71     48.53    -20.35     20.55
   26.9271     50.08     48.52    -19.96     20.55
   26.9373     49.92     48.51    -20.11     20.55
   26.9475     49.37     48.50    -20.65     20.56
   26.9576     49.77     48.49    -20.24     20.56
   26.9678     50.40     48.48    -19.61     20.56
   26.9779     49.47     48.48    -20.53     20.56
   26.9881     48.74     48.47    -21.26     20.56
   26.9983     50.06     48.47    -19.93     20.56
   27.0084     49.59     48.47    -20.40     20.56
   27.0186     49.29     48.47    -20.70     20.56
   27.0288     49.87     48.47    -20.13     20.56
   27.0389     50.18     48.48    -19.82     20.56
   27.0491     49.45     48.48    -20.56     20.56
   27.0593     50.32     48.49    -19.69     20.56
   27.0694     49.62     48.50    -20.40     20.56
   27.0796     49.48     48.51    -20.55     20.56
   27.0898     48.68     48.52    -21.37     20.56
   27.0999     49.65     48.54    -20.41     20.56
   27.1101     49.97     48.55    -20.11     20.56
   27.1202     49.05     48.57    -21.05     20.56
   27.1304     48.94     48.59    -21.18     20.56
   27.1406     49.60     48.62    -20.54     20.56
   27.1507     49.91     48.64    -20.25     20.56
   27.1609     49.82     48.67    -20.37     20.56
   27.1711     48.60     48.70    -21.62     20.56
   27.1812     49.62     48.73    -20.63     20.56
   27.1914     49.91     48.76    -20.37     20.56
   27.2016     49.23     48.79    -21.09     20.56
   27.2117     49.66     48.83    -20.69     20.56
   27.2219     49.87     48.87    -20.52     20.56
   27.2321     48.67     48.91    -21.77     20.56
   27.2422     49.98     48.96    -20.50     20.56
   27.2524     49.98     49.00    -20.55     20.56
   27.2626     50.46     49.05    -20.11     20.56
   27.2727     48.86     49.10    -21.76     20.56
   27.2829     48.97     49.15    -21.71     20.56
   27.2930     49.60     49.21    -21.13     20.56
   27.3032     49.69     49.27    -21.10     20.56
   27.3134     49.48     49.33    -21.37     20.56
   27.3235     49.43     49.39    -21.49     20.56
   27.3337     49.90     49.46    -21.08     20.56
   27.3439     50.06     49.53    -20.99     20.56
   27.3540     49.86     49.60    -21.26     20.56
   27.3642     49.32     49.67    -21.87     20.56
   27.3744     50.32     49.74    -20.95     20.56
   27.3845     50.45     49.82    -20.90     20.56
   27.3947     50.47     49.90    -20.96     20.56
   27.4049     50.73     49.99    -20.78     20.56
   27.4150     50.07     50.07    -21.53     20.56
   27.4252     49.95     50.16    -21.74     20.56
   27.4353     49.52     50.25    -22.26     20.56
   27.4455     50.68     50.35    -21.19     20.56
   27.4557     50.87     50.44    -21.10     20.56
   27.4658     50.01     50.54    -22.06     20.56
   27.4760     50.88     50.64    -21.29     20.56
   27.4862     51.20     50.75    -21.07     20.56
   27.4963     49.78     50.86    -22.60     20.56
   27.5065     50.83     50.97    -21.66     20.56
   27.5167     51.45     51.08    -21.15     20.56
   27.5268     50.82     51.19    -21.90     20.56
   27.5370     50.24     51.31    -22.60     20.56
   27.5472     51.67     51.43    -21.29     20.56
   27.5573     50.84     51.56    -22.24     20.56
   27.5675     50.70     51.68    -22.51     20.56
   27.5777     51.20     51.81    -22.13     20.56
   27.5878     51.50     51.94    -21.96     20.56
   27.5980     51.26     52.07    -22.34     20.56
   27.6081     51.54     52.21    -22.19     20.56
   27.6183     51.04     52.35    -22.83     20.56
   27.6285     51.95     52.49    -22.06     20.56
   27.6386     51.79     52.63    -22.37     20.56
   27.6488     50.71     52.78    -23.59     20.57
   27.6590     52.90     52.93    -21.55     20.57
   27.6691     51.93     53.08    -22.67     20.57
   27.6793     52.28     53.23    -22.48     20.57
   27.6895     52.26     53.39    -22.65     20.57
   27.6996     53.70     53.54    -21.37     20.57
   27.7098     51.88     53.70    -23.35     20.57
   27.7200     53.15     53.87    -22.24     20.57
   27.7301     53.16     54.03    -22.39     20.57
   27.7403     52.48     54.19    -23.24     20.57
   27.7504     52.54     54.36    -23.35     20.57
   27.7606     52.57     54.53    -23.49     20.57
   27.7708     52.37     54.70    -23.86     20.57
   27.7809     52.88     54.88    -23.52     20.57
   27.7911     54.16     55.05    -22.42     20.57
   27.8013     54.20     55.23    -22.55     20.57
   27.8114     54.74     55.41    -22.19     20.57
   27.8216     54.27     55.59    -22.84     20.57
   27.8318     54.93     55.77    -22.36     20.57
   27.8419     54.76     55.95    -22.71     20.57
   27.8521     54.69     56.13    -22.97     20.57
   27.8623     53.62     56.32    -24.22     20.57
   27.8724     54.93     56.50    -23.10     20.57
   27.8826     55.23     56.69    -22.98     20.57
   27.8928     56.47     56.88    -21.93     20.57
   27.9029     56.28     57.06    -22.31     20.57
   27.9131     57.22     57.25    -21.56     20.57
   27.9232     56.34     57.44    -22.62     20.57
   27.9334     56.71     57.63    -22.44     20.57
   27.9436     57.00     57.82    -22.34     20.57
   27.9537     57.39     58.01    -22.14     20.57
   27.9639     58.07     58.20    -21.65     20.57
   27.9741     57.77     58.39    -22.14     20.57
   27.9842     58.07     58.58    -22.03     20.57
   27.9944     58.55     58.77    -21.74     20.57
   28.0046     58.54     58.95    -21.94     20.57
   28.0147     59.21     59.14    -21.45     20.57
   28.0249     58.41     59.33    -22.44     20.57
   28.0351     59.10     59.51    -21.94     20.57
   28.0452     58.76     59.70    -22.46     20.57
   28.0554     60.38     59.88    -21.02     20.57
   28.0655     59.77     60.06    -21.81     20.57
   28.0757     59.70     60.24    -22.06     20.57
   28.0859     61.04     60.42    -20.90     20.57
   28.0960     58.92     60.59    -23.19     20.57
   28.1062     61.07     60.76    -21.22     20.57
   28.1164     61.41     60.93    -21.05     20.57
   28.1265     60.49     61.10    -22.13     20.57
   28.1367     60.91     61.27    -21.88     20.57
   28.1469     62.55     61.43    -20.40     20.57
   28.1570     62.42     61.59    -20.69     20.57
   28.1672     61.58     61.74    -21.69     20.57
   28.1774     61.68     61.89    -21.74     20.57
   28.1875     61.95     62.04    -21.61     20.57
   28.1977     62.84     62.18    -20.87     20.57
   28.2079     63.05     62.32    -20.80     20.57
   28.2180     62.73     62.46    -21.25     20.57
   28.2282     64.07     62.59    -20.04     20.57
   28.2383     64.48     62.71    -19.76     20.57
   28.2485     65.54     62.83    -18.82     20.57
   28.2587     64.25     62.95    -20.22     20.57
   28.2688     65.27     63.06    -19.31     20.57
   28.2790     65.88     63.16    -18.81     20.57
   28.2892     65.03     63.26    -19.76     20.57
   28.2993     64.21     63.36    -20.67     20.57
   28.3095     65.04     63.44    -19.93     20.57
   28.3197     65.89     63.52    -19.16     20.57
   28.3298     64.35     63.60    -20.77     20.57
   28.3400     64.90     63.67    -20.29     20.57
   28.3502     65.26     63.73    -19.99     20.57
   28.3603     64.13     63.78    -21.18     20.58
   28.3705     64.45     63.83    -20.90     20.58
   28.3806     65.51     63.87    -19.88     20.58
   28.3908     64.60     63.90    -20.83     20.58
   28.4010     64.23     63.93    -21.22     20.58
   28.4111     65.61     63.95    -19.86     20.58
   28.4213     65.77     63.96    -19.72     20.58
   28.4315     65.71     63.97    -19.78     20.58
   28.4416     65.76     63.96    -19.73     20.58
   28.4518     65.51     63.95    -19.97     20.58
   28.4620     64.26     63.94    -21.20     20.58
   28.4721     65.19     63.91    -20.25     20.58
   28.4823     64.59     63.88    -20.81     20.58
   28.4925     64.34     63.84    -21.02     20.58
   28.5026     64.57     63.79    -20.75     20.58
   28.5128     65.38     63.74    -19.88     20.58
   28.5230     64.54     63.68    -20.66     20.58
   28.5331     64.33     63.61    -20.80     20.58
   28.5433     63.99     63.53    -21.07     20.58
   28.5534     62.96     63.45    -22.02     20.58
   28.5636     63.96     63.36    -20.93     20.58
   28.5738     64.42     63.27    -20.37     20.58
   28.5839     63.20     63.16    -21.49     20.58
   28.5941     62.72     63.06    -21.86     20.58
   28.6043     62.77     62.94    -21.69     20.58
   28.6144     63.10     62.82    -21.24     20.58
   28.6246     63.65     62.69    -20.56     20.58
   28.6348     64.73     62.56    -19.35     20.58
   28.6449     63.18     62.42    -20.76     20.58
   28.6551     62.23     62.27    -21.57     20.58
   28.6653     62.76     62.12    -20.89     20.58
   28.6754     62.81     61.97    -20.68     20.58
   28.6856     62.94     61.81    -20.39     20.58
   28.6957     62.17     61.65    -21.00     20.58
   28.7059     60.15     61.48    -22.85     20.58
   28.7161     61.27     61.30    -21.56     20.58
   28.7262     60.84     61.12    -21.81     20.58
   28.7364     59.72     60.94    -22.75     20.58
   28.7466     59.57     60.76    -22.71     20.58
   28.7567     60.39     60.57    -21.70     20.58
   28.7669     59.64     60.37    -22.26     20.58
   28.7771     59.27     60.18    -22.43     20.58
   28.7872     59.15     59.98    -22.35     20.58
   28.7974     57.45     59.78    -23.85     20.58
   28.8076     58.22     59.57    -22.87     20.58
   28.8177     59.24     59.36    -21.65     20.58
   28.8279     58.20     59.15    -22.48     20.58
   28.8381     58.99     58.94    -21.47     20.58
   28.8482     56.77     58.73    -23.48     20.58
   28.8584     56.96     58.51    -23.08     20.58
   28.8685     56.88     58.30    -22.94     20.58
   28.8787     57.35     58.08    -22.25     20.58
   28.8889     57.10     57.86    -22.28     20.58
   28.8990     56.05     57.64    -23.11     20.58
   28.9092     56.98     57.41    -21.96     20.58
   28.9194     56.10     57.19    -22.61     20.58
   28.9295     56.29     56.97    -22.20     20.58
   28.9397     56.18     56.74    -22.08     20.58
   28.9499     54.91     56.51    -23.13     20.58
   28.9600     56.25     56.29    -21.56     20.58
   28.9702     55.13     56.06    -22.46     20.58
   28.9804     54.66     55.84    -22.70     20.58
   28.9905     54.37     55.61    -22.77     20.58
   29.0007     54.22     55.39    -22.69     20.58
   29.0108     54.48     55.16    -22.21     20.58
   29.0210     54.12     54.94    -22.34     20.58
   29.0312     54.07     54.71    -22.17     20.58
   29.0413     54.09     54.49    -21.92     20.58
   29.0515     52.83     54.27    -22.96     20.58
   29.0617     52.96     54.04    -22.61     20.59
   29.0718     53.27     53.82    -22.08     20.59
   29.0820     51.46     53.60    -23.67     20.59
   29.0922     53.26     53.38    -21.65     20.59
   29.1023     51.68     53.16    -23.01     20.59
   29.1125     52.15     52.95    -22.32     20.59
   29.1227     52.71     52.73    -21.54     20.59
   29.1328     51.76     52.52    -22.28     20.59
   29.1430     52.36     52.30    -21.47     20.59
   29.1531     52.21     52.09    -21.41     20.59
   29.1633     51.13     51.88    -22.28     20.59
   29.1735     51.14     51.67    -22.06     20.59
   29.1836     51.29     51.47    -21.70     20.59
   29.1938     49.98     51.26    -22.81     20.59
   29.2040     50.76     51.06    -21.82     20.59
   29.2141     50.90     50.86    -21.48     20.59
   29.2243     50.23     50.66    -21.95     20.59
   29.2345     49.89     50.46    -22.09     20.59
   29.2446     49.06     50.27    -22.73     20.59
   29.2548     50.01     50.07    -21.59     20.59
   29.2650     49.17     49.88    -22.23     20.59
   29.2751     49.37     49.69    -21.85     20.59
   29.2853     49.02     49.50    -22.01     20.59
   29.2955     48.06     49.32    -22.78     20.59
   29.3056     48.54     49.14    -22.12     20.59
   29.3158     48.72     48.95    -21.76     20.59
   29.3259     48.37     48.78    -21.93     20.59
   29.3361     48.47     48.60    -21.65     20.59
   29.3463     48.15     48.42    -21.80     20.59
   29.3564     48.80     48.25    -20.98     20.59
   29.3666     48.02     48.08    -21.59     20.59
   29.3768     47.79     47.91    -21.65     20.59
   29.3869     47.23     47.75    -22.04     20.59
   29.3971     47.09     47.58    -22.02     20.59
   29.4073     47.93     47.42    -21.02     20.59
   29.4174     47.36     47.26    -21.43     20.59
   29.4276     46.22     47.11    -22.41     20.59
   29.4378     47.16     46.95    -21.32     20.59
   29.4479     47.21     46.80    -21.11     20.59
   29.4581     46.58     46.65    -21.59     20.59
   29.4682     47.45     46.50    -20.58     20.59
   29.4784     46.90     46.36    -20.98     20.59
   29.4886     46.83     46.21    -20.91     20.59
   29.4987     46.63     46.07    -20.97     20.59
   29.5089     46.06     45.93    -21.40     20.59
   29.5191     45.88     45.80    -21.44     20.59
   29.5292     46.53     45.66    -20.66     20.59
   29.5394     45.89     45.53    -21.16     20.59
   29.5496     45.75     45.40    -21.17     20.59
   29.5597     46.07     45.27    -20.72     20.59
   29.5699     44.42     45.14    -22.25     20.59
   29.5801     46.49     45.02    -20.05     20.59
   29.5902     45.35     44.90    -21.07     20.59
   29.6004     46.49     44.78    -19.81     20.59
   29.6106     45.99     44.66    -20.19     20.59
   29.6207     45.45     44.54    -20.62     20.59
   29.6309     45.54     44.43    -20.41     20.59
   29.6410     45.05     44.32    -20.79     20.59
   29.6512     45.20     44.20    -20.53     20.59
   29.6614     45.74     44.10    -19.88     20.59
   29.6715     44.66     43.99    -20.85     20.59
   29.6817     45.10     43.88    -20.31     20.59
   29.6919     43.82     43.78    -21.48     20.59
   29.7020     44.52     43.68    -20.68     20.59
   29.7122     43.51     43.58    -21.59     20.59
   29.7224     44.77     43.48    -20.23     20.59
   29.7325     45.29     43.38    -19.62     20.59
   29.7427     44.06     43.29    -20.75     20.59
   29.7529     44.02     43.19    -20.70     20.59
   29.7630     44.82     43.10    -19.81     20.60
   29.7732     43.96     43.01    -20.57     20.60
   29.7833     43.77     42.92    -20.68     20.60
   29.7935     44.16     42.83    -20.20     20.60
   29.8037     44.04     42.75    -20.23     20.60
   29.8138     44.01     42.66    -20.18     20.60
   29.8240     43.77     42.58    -20.33     20.60
   29.8342     44.66     42.50    -19.36     20.60
   29.8443     44.10     42.42    -19.84     20.60
   29.8545     43.38     42.34    -20.48     20.60
   29.8647     44.57     42.26    -19.21     20.60
   29.8748     43.39     42.18    -20.31     20.60
   29.8850     43.04     42.10    -20.59     20.60
   29.8952     42.94     42.03    -20.61     20.60
   29.9053     44.01     41.95    -19.47     20.60
   29.9155     43.12     41.88    -20.29     20.60
   29.9257     43.37     41.81    -19.96     20.60
   29.9358     43.34     41.74    -19.92     20.60
   29.9460     43.96     41.67    -19.23     20.60
   29.9561     42.82     41.60    -20.30     20.60
   29.9663     42.77     41.53    -20.29     20.60
   29.9765     43.01     41.46    -19.98     20.60
   29.9866     41.49     41.40    -21.43     20.60
   29.9968     43.10     41.33    -19.76     20.60
   30.0070     41.77     41.27    -21.02     20.60
   30.0171     42.50     41.20    -20.23     20.60
   30.0273     42.54     41.14    -20.12     20.60
   30.0375     43.84     41.08    -18.76     20.60
   30.0476     42.21     41.02    -20.33     20.60
   30.0578     42.28     40.95    -20.20     20.60
   30.0680     41.95     40.89    -20.47     20.60
   30.0781     41.76     40.83    -20.60     20.60
   30.0883     40.90     40.77    -21.40     20.60
   30.0984     42.84     40.72    -19.40     20.60
   30.1086     42.10     40.66    -20.08     20.60
   30.1188     41.05     40.60    -21.07     20.60
   30.1289     41.18     40.54    -20.89     20.60
   30.1391     42.29     40.49    -19.72     20.60
   30.1493     41.29     40.43    -20.66     20.60
   30.1594     40.65     40.37    -21.25     20.60
   30.1696     41.84     40.32    -20.00     20.60
   30.1798     41.20     40.26    -20.59     20.60
   30.1899     41.80     40.21    -19.93     20.60
   30.2001     40.68     40.15    -21.00     20.60
   30.2103     41.45     40.10    -20.17     20.60
   30.2204     41.01     40.05    -20.56     20.60
   30.2306     41.13     39.99    -20.39     20.60
   30.2408     41.76     39.94    -19.70     20.60
   30.2509     41.44     39.89    -19.97     20.60
   30.2611     40.14     39.84    -21.22     20.60
   30.2712     39.97     39.78    -21.34     20.60
   30.2814     41.10     39.73    -20.16     20.60
   30.2916     39.30     39.68    -21.90     20.60
   30.3017     39.45     39.63    -21.70     20.60
   30.3119     39.90     39.58    -21.20     20.60
   30.3221     39.80     39.53    -21.25     20.60
   30.3322     39.57     39.48    -21.43     20.60
   30.3424     40.60     39.43    -20.35     20.60
   30.3526     38.63     39.37    -22.27     20.60
   30.3627     40.09     39.32    -20.76     20.60
   30.3729     39.57     39.27    -21.23     20.60
   30.3831     38.65     39.22    -22.10     20.60
   30.3932     39.54     39.17    -21.16     20.60
   30.4034     39.01     39.12    -21.64     20.60
   30.4135     39.61     39.08    -20.99     20.60
   30.4237     39.01     39.03    -21.54     20.60
   30.4339     39.04     38.98    -21.46     20.60
   30.4440     37.65     38.93    -22.80     20.60
   30.4542     37.82     38.88    -22.58     20.60
   30.4644     38.84     38.83    -21.51     20.60
   30.4745     38.30     38.78    -22.00     20.61
   30.4847     38.25     38.73    -22.00     20.61
   30.4949     37.95     38.68    -22.26     20.61
   30.5050     37.34     38.63    -22.82     20.61
   30.5152     37.90     38.58    -22.21     20.61
   30.5254     38.02     38.53    -22.04     20.61
   30.5355     38.43     38.49    -21.58     20.61
   30.5457     38.60     38.44    -21.36     20.61
   30.5559     38.43     38.39    -21.48     20.61
   30.5660     36.98     38.34    -22.88     20.61
   30.5762     38.49     38.29    -21.32     20.61
   30.5863     37.55     38.24    -22.22     20.61
   30.5965     38.11     38.19    -21.61     20.61
   30.6067     37.72     38.15    -21.95     20.61
   30.6168     38.33     38.10    -21.29     20.61
   30.6270     36.35     38.05    -23.22     20.61
   30.6372     37.11     38.00    -22.41     20.61
   30.6473     37.34     37.95    -22.13     20.61
   30.6575     36.72     37.90    -22.71     20.61
   30.6677     37.57     37.85    -21.81     20.61
   30.6778     36.70     37.81    -22.63     20.61
   30.6880     36.24     37.76    -23.04     20.61
   30.6982     37.03     37.71    -22.20     20.61
   30.7083     37.02     37.66    -22.16     20.61
   30.7185     36.26     37.61    -22.88     20.61
   30.7286     36.18     37.56    -22.91     20.61
   30.7388     37.51     37.51    -21.53     20.61
   30.7490     36.38     37.47    -22.61     20.61
   30.7591     36.49     37.42    -22.45     20.61
   30.7693     36.82     37.37    -22.07     20.61
   30.7795     35.37     37.32    -23.47     20.61
   30.7896     35.37     37.27    -23.43     20.61
   30.7998     36.50     37.22    -22.25     20.61
   30.8100     36.17     37.17    -22.53     20.61
   30.8201     36.62     37.13    -22.03     20.61
   30.8303     36.26     37.08    -22.34     20.61
   30.8405     36.04     37.03    -22.51     20.61
   30.8506     34.76     36.98    -23.75     20.61
   30.8608     36.40     36.93    -22.06     20.61
   30.8710     36.16     36.88    -22.25     20.61
   30.8811     36.18     36.84    -22.18     20.61
   30.8913     35.22     36.79    -23.09     20.61
   30.9014     35.07     36.74    -23.19     20.61
   30.9116     35.00     36.69    -23.22     20.61
   30.9218     36.21     36.64    -21.96     20.61
   30.9319     35.75     36.60    -22.37     20.61
   30.9421     35.63     36.55    -22.44     20.61
   30.9523     35.48     36.50    -22.54     20.61
   30.9624     34.51     36.45    -23.47     20.61
   30.9726     35.79     36.40    -22.14     20.61
   30.9828     34.93     36.36    -22.95     20.61
   30.9929     34.64     36.31    -23.19     20.61
   31.0031     35.92     36.26    -21.86     20.61
   31.0133     35.51     36.21    -22.23     20.61
   31.0234     35.13     36.16    -22.56     20.61
   31.0336     35.04     36.12    -22.60     20.61
   31.0437     34.45     36.07    -23.14     20.61
   31.0539     34.49     36.02    -23.05     20.61
   31.0641     34.35     35.97    -23.15     20.61
   31.0742     34.52     35.93    -22.93     20.61
   31.0844     34.71     35.88    -22.69     20.61
   31.0946     35.18     35.83    -22.18     20.61
   31.1047     34.59     35.78    -22.72     20.61
   31.1149     34.73     35.74    -22.53     20.61
   31.1251     34.66     35.69    -22.55     20.61
   31.1352     35.16     35.64    -22.01     20.61
   31.1454     34.97     35.60    -22.15     20.61
   31.1556     34.80     35.55    -22.27     20.61
   31.1657     34.60     35.50    -22.43     20.61
   31.1759     34.82     35.46    -22.16     20.62
   31.1860     34.87     35.41    -22.06     20.62
   31.1962     33.85     35.36    -23.04     20.62
   31.2064     34.36     35.32    -22.48     20.62
   31.2165     34.63     35.27    -22.17     20.62
   31.2267     34.77     35.23    -21.98     20.62
   31.2369     34.16     35.18    -22.54     20.62
   31.2470     34.48     35.13    -22.18     20.62
   31.2572     35.54     35.09    -21.07     20.62
   31.2674     34.46     35.04    -22.11     20.62
   31.2775     33.95     35.00    -22.57     20.62
   31.2877     34.73     34.95    -21.75     20.62
   31.2979     33.95     34.91    -22.48     20.62
   31.3080     34.34     34.86    -22.05     20.62
   31.3182     34.40     34.82    -21.94     20.62
   31.3284     33.51     34.77    -22.79     20.62
   31.3385     34.43     34.73    -21.82     20.62
   31.3487     34.29     34.68    -21.92     20.62
   31.3588     33.52     34.64    -22.64     20.62
   31.3690     34.00     34.60    -22.12     20.62
   31.3792     33.82     34.55    -22.26     20.62
   31.3893     33.77     34.51    -22.26     20.62
   31.3995     34.27     34.47    -21.72     20.62
   31.4097     34.20     34.42    -21.75     20.62
   31.4198     34.08     34.38    -21.82     20.62
   31.4300     33.94     34.34    -21.92     20.62
   31.4402     33.99     34.29    -21.83     20.62
   31.4503     33.10     34.25    -22.68     20.62
   31.4605     33.48     34.21    -22.25     20.62
   31.4707     33.84     34.17    -21.85     20.62
   31.4808     32.76     34.13    -22.89     20.62
   31.4910     34.02     34.09    -21.59     20.62
   31.5011     33.64     34.05    -21.93     20.62
   31.5113     33.49     34.00    -22.04     20.62
   31.5215     34.09     33.96    -21.40     20.62
   31.5316     33.55     33.92    -21.90     20.62
   31.5418     33.44     33.88    -21.97     20.62
   31.5520     32.78     33.84    -22.59     20.62
   31.5621     33.61     33.80    -21.72     20.62
   31.5723     32.84     33.76    -22.45     20.62
   31.5825     33.59     33.73    -21.66     20.62
   31.5926     34.04     33.69    -21.17     20.62
   31.6028     33.08     33.65    -22.09     20.62
   31.6130     33.39     33.61    -21.74     20.62
   31.6231     33.95     33.57    -21.15     20.62
   31.6333     33.59     33.53    -21.47     20.62
   31.6435     32.81     33.50    -22.21     20.62
   31.6536     32.91     33.46    -22.07     20.62
   31.6638     33.41     33.42    -21.54     20.62
   31.6739     33.68     33.39    -21.23     20.62
   31.6841     33.30     33.35    -21.58     20.62
   31.6943     32.45     33.32    -22.39     20.62
   31.7044     32.81     33.28    -21.99     20.62
   31.7146     33.33     33.25    -21.44     20.62
   31.7248     32.84     33.21    -21.89     20.62
   31.7349     32.83     33.18    -21.87     20.62
   31.7451     33.40     33.14    -21.27     20.62
   31.7553     33.57     33.11    -21.06     20.62
   31.7654     32.36     33.08    -22.24     20.62
   31.7756     33.01     33.04    -21.56     20.62
   31.7858     33.07     33.01    -21.46     20.62
   31.7959     32.74     32.98    -21.76     20.62
   31.8061     33.37     32.95    -21.10     20.62
   31.8162     33.25     32.92    -21.19     20.62
   31.8264     32.90     32.88    -21.51     20.62
   31.8366     32.62     32.85    -21.76     20.62
   31.8467     32.75     32.82    -21.60     20.62
   31.8569     32.63     32.79    -21.69     20.62
   31.8671     33.68     32.76    -20.61     20.62
   31.8772     32.60     32.74    -21.66     20.63
   31.8874     32.90     32.71    -21.33     20.63
   31.8976     33.04     32.68    -21.16     20.63
   31.9077     33.04     32.65    -21.14     20.63
   31.9179     32.60     32.62    -21.55     20.63
   31.9281     32.35     32.60    -21.77     20.63
   31.9382     31.77     32.57    -22.33     20.63
   31.9484     32.65     32.55    -21.42     20.63
   31.9586     33.30     32.52    -20.74     20.63
   31.9687     32.72     32.50    -21.30     20.63
   31.9789     32.70     32.47    -21.30     20.63
   31.9890     33.22     32.45    -20.75     20.63
   31.9992     32.33     32.42    -21.62     20.63
   32.0094     32.69     32.40    -21.23     20.63
   32.0195     32.30     32.38    -21.60     20.63
   32.0297     33.10     32.36    -20.78     20.63
   32.0399     32.80     32.33    -21.06     20.63
   32.0500     33.31     32.31    -20.53     20.63
   32.0602     32.74     32.29    -21.08     20.63
   32.0704     32.84     32.27    -20.96     20.63
   32.0805     33.41     32.25    -20.37     20.63
   32.0907     32.65     32.23    -21.11     20.63
   32.1009     33.20     32.21    -20.54     20.63
   32.1110     33.07     32.20    -20.65     20.63
   32.1212     32.28     32.18    -21.42     20.63
   32.1313     33.26     32.16    -20.43     20.63
   32.1415     32.85     32.14    -20.82     20.63
   32.1517     32.51     32.13    -21.14     20.63
   32.1618     32.99     32.11    -20.65     20.63
   32.1720     32.59     32.10    -21.03     20.63
   32.1822     32.41     32.08    -21.20     20.63
   32.1923     32.60     32.07    -20.99     20.63
   32.2025     32.71     32.06    -20.87     20.63
   32.2127     31.27     32.04    -22.30     20.63
   32.2228     33.27     32.03    -20.28     20.63
   32.2330     32.36     32.02    -21.18     20.63
   32.2432     32.25     32.01    -21.28     20.63
   32.2533     32.53     31.99    -20.99     20.63
   32.2635     32.95     31.98    -20.56     20.63
   32.2737     32.33     31.97    -21.17     20.63
   32.2838     31.31     31.96    -22.18     20.63
   32.2940     32.58     31.96    -20.90     20.63
   32.3041     31.76     31.95    -21.71     20.63
   32.3143     31.79     31.94    -21.67     20.63
   32.3245     32.07     31.93    -21.39     20.63
   32.3346     32.51     31.92    -20.94     20.63
   32.3448     32.01     31.92    -21.43     20.63
   32.3550     33.24     31.91    -20.20     20.63
   32.3651     31.67     31.91    -21.76     20.63
   32.3753     32.27     31.90    -21.16     20.63
   32.3855     33.03     31.90    -20.39     20.63
   32.3956     32.45     31.89    -20.97     20.63
   32.4058     33.18     31.89    -20.23     20.63
   32.4160     33.40     31.89    -20.01     20.63
   32.4261     32.51     31.88    -20.90     20.63
   32.4363     33.10     31.88    -20.31     20.63
   32.4464     33.20     31.88    -20.20     20.63
   32.4566     33.20     31.88    -20.20     20.63
   32.4668     32.18     31.88    -21.22     20.63
   32.4769     31.79     31.88    -21.61     20.63
   32.4871     32.75     31.88    -20.65     20.63
   32.4973     32.48     31.88    -20.92     20.63
   32.5074     32.25     31.88    -21.16     20.63
   32.5176     31.69     31.88    -21.72     20.63
   32.5278     32.90     31.88    -20.51     20.63
   32.5379     31.90     31.89    -21.51     20.63
   32.5481     31.75     31.89    -21.66     20.63
   32.5583     32.85     31.89    -20.57     20.63
   32.5684     32.88     31.90    -20.54     20.63
   32.5786     32.23     31.90    -21.19     20.63
   32.5888     32.45     31.91    -20.98     20.64
   32.5989     32.51     31.91    -20.92     20.64
   32.6091     32.18     31.92    -21.26     20.64
   32.6192     32.49     31.92    -20.95     20.64
   32.6294     32.68     31.93    -20.77     20.64
   32.6396     31.60     31.93    -21.86     20.64
   32.6497     32.47     31.94    -20.99     20.64
   32.6599     33.02     31.95    -20.45     20.64
   32.6701     32.77     31.95    -20.71     20.64
   32.6802     31.83     31.96    -21.65     20.64
   32.6904     32.54     31.97    -20.95     20.64
   32.7006     31.83     31.98    -21.67     20.64
   32.7107     32.59     31.98    -20.92     20.64
   32.7209     32.51     31.99    -21.01     20.64
   32.7311     32.71     32.00    -20.82     20.64
   32.7412     32.43     32.01    -21.10     20.64
   32.7514     32.12     32.02    -21.42     20.64
   32.7615     32.37     32.03    -21.18     20.64
   32.7717     32.13     32.04    -21.43     20.64
   32.7819     31.65     32.05    -21.92     20.64
   32.7920     31.74     32.06    -21.84     20.64
   32.8022     33.17     32.07    -20.42     20.64
   32.8124     32.60     32.08    -21.00     20.64
   32.8225     32.34     32.09    -21.27     20.64
   32.8327     32.98     32.10    -20.64     20.64
   32.8429     31.87     32.11    -21.76     20.64
   32.8530     31.82     32.12    -21.82     20.64
   32.8632     32.35     32.13    -21.30     20.64
   32.8734     32.32     32.14    -21.34     20.64
   32.8835     32.13     32.15    -21.54     20.64
   32.8937     32.84     32.16    -20.84     20.64
   32.9039     32.45     32.17    -21.24     20.64
   32.9140     32.05     32.18    -21.65     20.64
   32.9242     32.80     32.19    -20.91     20.64
   32.9343     32.58     32.20    -21.14     20.64
   32.9445     32.35     32.21    -21.38     20.64
   32.9547     31.84     32.21    -21.90     20.64
   32.9648     31.66     32.22    -22.09     20.64
   32.9750     31.96     32.23    -21.80     20.64
   32.9852     32.24     32.24    -21.53     20.64
   32.9953     32.63     32.25    -21.14     20.64
   33.0055     31.90     32.26    -21.88     20.64
   33.0157     33.84     32.27    -19.95     20.64
   33.0258     32.24     32.27    -21.56     20.64
   33.0360     31.79     32.28    -22.01     20.64
   33.0462     32.26     32.29    -21.55     20.64
   33.0563     32.68     32.29    -21.14     20.64
   33.0665     32.93     32.30    -20.89     20.64
   33.0766     33.02     32.30    -20.81     20.64
   33.0868     32.80     32.31    -21.03     20.64
   33.0970     32.18     32.31    -21.66     20.64
   33.1071     32.60     32.32    -21.24     20.64
   33.1173     32.45     32.32    -21.39     20.64
   33.1275     32.61     32.32    -21.24     20.64
   33.1376     32.49     32.32    -21.36     20.64
   33.1478     32.82     32.33    -21.03     20.64
   33.1580     32.54     32.33    -21.31     20.64
   33.1681     32.09     32.33    -21.76     20.64
   33.1783     32.70     32.33    -21.15     20.64
   33.1885     31.80     32.33    -22.05     20.64
   33.1986     32.55     32.32    -21.30     20.64
   33.2088     33.11     32.32    -20.73     20.64
   33.2189     32.95     32.32    -20.89     20.64
   33.2291     32.38     32.31    -21.46     20.64
   33.2393     32.12     32.31    -21.71     20.64
   33.2494     32.43     32.30    -21.39     20.64
   33.2596     32.71     32.29    -21.11     20.64
   33.2698     32.87     32.29    -20.94     20.64
   33.2799     32.09     32.28    -21.71     20.64
   33.2901     32.89     32.27    -20.90     20.65
   33.3003     33.27     32.26    -20.51     20.65
   33.3104     32.82     32.25    -20.95     20.65
   33.3206     32.76     32.23    -21.00     20.65
   33.3308     33.02     32.22    -20.72     20.65
   33.3409     32.29     32.21    -21.44     20.65
   33.3511     34.15     32.19    -19.56     20.65
   33.3613     32.77     32.17    -20.93     20.65
   33.3714     32.10     32.16    -21.58     20.65
   33.3816     31.98     32.14    -21.68     20.65
   33.3917     32.34     32.12    -21.30     20.65
   33.4019     32.66     32.10    -20.96     20.65
   33.4121     32.73     32.08    -20.87     20.65
   33.4222     32.02     32.05    -21.56     20.65
   33.4324     32.60     32.03    -20.95     20.65
   33.4426     33.35     32.01    -20.18     20.65
   33.4527     32.38     31.98    -21.12     20.65
   33.4629     32.27     31.95    -21.21     20.65
   33.4731     32.18     31.93    -21.27     20.65
   33.4832     31.58     31.90    -21.84     20.65
   33.4934     32.45     31.87    -20.94     20.65
   33.5036     31.91     31.84    -21.45     20.65
   33.5137     33.15     31.81    -20.18     20.65
   33.5239     31.71     31.77    -21.59     20.65
   33.5340     31.95     31.74    -21.32     20.65
   33.5442     32.48     31.71    -20.75     20.65
   33.5544     30.66     31.67    -22.54     20.65
   33.5645     31.59     31.64    -21.57     20.65
   33.5747     31.87     31.60    -21.25     20.65
   33.5849     31.99     31.56    -21.10     20.65
   33.5950     31.70     31.52    -21.35     20.65
   33.6052     31.51     31.48    -21.50     20.65
   33.6154     31.49     31.44    -21.48     20.65
   33.6255     32.04     31.40    -20.89     20.65
   33.6357     30.71     31.36    -22.17     20.65
   33.6459     31.13     31.32    -21.71     20.65
   33.6560     31.25     31.27    -21.55     20.65
   33.6662     31.31     31.23    -21.44     20.65
   33.6764     31.70     31.19    -21.01     20.65
   33.6865     30.92     31.14    -21.74     20.65
   33.6967     31.12     31.09    -21.50     20.65
   33.7068     30.94     31.05    -21.63     20.65
   33.7170     31.34     31.00    -21.19     20.65
   33.7272     30.85     30.95    -21.63     20.65
   33.7373     28.79     30.91    -23.64     20.65
   33.7475     30.97     30.86    -21.41     20.65
   33.7577     30.43     30.81    -21.90     20.65
   33.7678     30.04     30.76    -22.24     20.65
   33.7780     30.70     30.71    -21.53     20.65
   33.7882     29.52     30.66    -22.66     20.65
   33.7983     29.59     30.61    -22.54     20.65
   33.8085     30.41     30.55    -21.67     20.65
   33.8187     30.22     30.50    -21.81     20.65
   33.8288     30.10     30.45    -21.87     20.65
   33.8390     30.16     30.40    -21.76     20.65
   33.8491     29.71     30.35    -22.16     20.65
   33.8593     29.49     30.29    -22.33     20.65
   33.8695     29.42     30.24    -22.34     20.65
   33.8796     29.31     30.19    -22.40     20.65
   33.8898     29.07     30.13    -22.59     20.65
   33.9000     29.15     30.08    -22.45     20.65
   33.9101     28.91     30.02    -22.64     20.65
   33.9203     29.32     29.97    -22.17     20.65
   33.9305     28.84     29.92    -22.60     20.65
   33.9406     29.54     29.86    -21.85     20.65
   33.9508     28.44     29.81    -22.89     20.65
   33.9610     28.74     29.75    -22.54     20.65
   33.9711     29.06     29.70    -22.16     20.65
   33.9813     28.90     29.64    -22.27     20.65
   33.9915     28.65     29.59    -22.46     20.66
   34.0016     28.62     29.54    -22.44     20.66
   34.0118     28.60     29.48    -22.40     20.66
   34.0219     28.61     29.43    -22.34     20.66
   34.0321     29.12     29.37    -21.78     20.66
   34.0423     28.43     29.32    -22.41     20.66
   34.0524     28.37     29.26    -22.42     20.66
   34.0626     28.50     29.21    -22.23     20.66
   34.0728     28.98     29.15    -21.70     20.66
   34.0829     28.00     29.10    -22.63     20.66
   34.0931     28.94     29.05    -21.63     20.66
   34.1033     27.64     28.99    -22.88     20.66
   34.1134     28.24     28.94    -22.22     20.66
   34.1236     28.52     28.89    -21.89     20.66
   34.1338     27.97     28.83    -22.39     20.66
   34.1439     28.62     28.78    -21.68     20.66
   34.1541     27.71     28.73    -22.54     20.66
   34.1642     27.85     28.68    -22.35     20.66
   34.1744     28.10     28.62    -22.05     20.66
   34.1846     27.59     28.57    -22.51     20.66
   34.1947     26.90     28.52    -23.14     20.66
   34.2049     27.04     28.47    -22.95     20.66
   34.2151     27.85     28.42    -22.09     20.66
   34.2252     27.40     28.37    -22.49     20.66
   34.2354     28.05     28.32    -21.79     20.66
   34.2456     27.44     28.26    -22.35     20.66
   34.2557     27.47     28.22    -22.27     20.66
   34.2659     27.38     28.17    -22.31     20.66
   34.2761     27.95     28.12    -21.69     20.66
   34.2862     27.15     28.07    -22.44     20.66
   34.2964     27.34     28.02    -22.20     20.66
   34.3066     27.51     27.97    -21.98     20.66
   34.3167     27.35     27.92    -22.10     20.66
   34.3269     27.66     27.87    -21.74     20.66
   34.3370     27.37     27.83    -21.98     20.66
   34.3472     27.22     27.78    -22.08     20.66
   34.3574     27.35     27.73    -21.91     20.66
   34.3675     27.33     27.69    -21.88     20.66
   34.3777     26.89     27.64    -22.28     20.66
   34.3879     27.38     27.60    -21.74     20.66
   34.3980     27.43     27.55    -21.65     20.66
   34.4082     27.45     27.51    -21.58     20.66
   34.4184     26.43     27.46    -22.56     20.66
   34.4285     26.30     27.42    -22.64     20.66
   34.4387     26.73     27.38    -22.17     20.66
   34.4489     26.78     27.33    -22.08     20.66
   34.4590     27.84     27.29    -20.97     20.66
   34.4692     26.67     27.25    -22.10     20.66
   34.4793     27.31     27.21    -21.42     20.66
   34.4895     26.22     27.16    -22.47     20.66
   34.4997     26.21     27.12    -22.44     20.66
   34.5098     27.99     27.08    -20.62     20.66
   34.5200     26.83     27.04    -21.74     20.66
   34.5302     26.98     27.00    -21.55     20.66
   34.5403     26.89     26.96    -21.60     20.66
   34.5505     26.51     26.93    -21.94     20.66
   34.5607     26.37     26.89    -22.04     20.66
   34.5708     26.08     26.85    -22.29     20.66
   34.5810     26.76     26.81    -21.58     20.66
   34.5912     27.24     26.77    -21.06     20.66
   34.6013     26.32     26.74    -21.94     20.66
   34.6115     25.93     26.70    -22.30     20.66
   34.6217     27.23     26.67    -20.96     20.66
   34.6318     26.44     26.63    -21.71     20.66
   34.6420     26.94     26.60    -21.18     20.66
   34.6521     26.80     26.56    -21.29     20.66
   34.6623     25.91     26.53    -22.14     20.66
   34.6725     26.34     26.49    -21.68     20.66
   34.6826     26.10     26.46    -21.88     20.66
   34.6928     26.02     26.43    -21.93     20.66
   34.7030     26.10     26.39    -21.82     20.67
   34.7131     26.81     26.36    -21.08     20.67
   34.7233     26.52     26.33    -21.33     20.67
   34.7335     26.67     26.30    -21.15     20.67
   34.7436     26.84     26.27    -20.95     20.67
   34.7538     26.30     26.24    -21.46     20.67
   34.7640     26.40     26.21    -21.33     20.67
   34.7741     26.32     26.18    -21.38     20.67
   34.7843     26.38     26.15    -21.29     20.67
   34.7944     26.47     26.12    -21.17     20.67
   34.8046     26.54     26.09    -21.08     20.67
   34.8148     26.04     26.06    -21.55     20.67
   34.8249     25.77     26.04    -21.79     20.67
   34.8351     26.29     26.01    -21.24     20.67
   34.8453     26.22     25.98    -21.29     20.67
   34.8554     26.31     25.95    -21.17     20.67
   34.8656     26.28     25.93    -21.17     20.67
   34.8758     25.73     25.90    -21.70     20.67
   34.8859     26.09     25.88    -21.31     20.67
   34.8961     26.10     25.85    -21.28     20.67
   34.9063     26.38     25.83    -20.97     20.67
   34.9164     26.87     25.80    -20.46     20.67
   34.9266     25.48     25.78    -21.82     20.67
   34.9367     25.95     25.75    -21.33     20.67
   34.9469     26.52     25.73    -20.73     20.67
   34.9571     26.40     25.71    -20.83     20.67
   34.9672     26.34     25.69    -20.87     20.67
   34.9774     25.80     25.66    -21.39     20.67
   34.9876     26.40     25.64    -20.76     20.67
   34.9977     26.15     25.62    -20.99     20.67
   35.0079     25.19     25.60    -21.93     20.67
   35.0181     25.64     25.58    -21.46     20.67
   35.0282     25.80     25.55    -21.28     20.67
   35.0384     25.99     25.53    -21.07     20.67
   35.0486     26.05     25.51    -20.99     20.67
   35.0587     26.10     25.49    -20.92     20.67
   35.0689     26.05     25.47    -20.95     20.67
   35.0791     25.16     25.45    -21.82     20.67
   35.0892     25.52     25.44    -21.44     20.67
   35.0994     25.84     25.42    -21.10     20.67
   35.1095     26.22     25.40    -20.70     20.67
   35.1197     26.07     25.38    -20.83     20.67
   35.1299     25.22     25.36    -21.67     20.67
   35.1400     25.82     25.34    -21.05     20.67
   35.1502     25.55     25.33    -21.30     20.67
   35.1604     25.68     25.31    -21.15     20.67
   35.1705     26.04     25.29    -20.78     20.67
   35.1807     25.95     25.27    -20.85     20.67
   35.1909     25.69     25.26    -21.09     20.67
   35.2010     25.34     25.24    -21.43     20.67
   35.2112     25.26     25.23    -21.49     20.67
   35.2214     25.34     25.21    -21.39     20.67
   35.2315     25.51     25.19    -21.21     20.67
   35.2417     25.89     25.18    -20.81     20.67
   35.2518     24.88     25.16    -21.81     20.67
   35.2620     25.07     25.15    -21.60     20.67
   35.2722     25.68     25.13    -20.98     20.67
   35.2823     24.95     25.12    -21.69     20.67
   35.2925     25.54     25.10    -21.09     20.67
   35.3027     26.43     25.09    -20.18     20.67
   35.3128     25.09     25.08    -21.51     20.67
   35.3230     24.85     25.06    -21.74     20.67
   35.3332     25.51     25.05    -21.06     20.67
   35.3433     25.87     25.03    -20.69     20.67
   35.3535     26.02     25.02    -20.52     20.67
   35.3637     25.87     25.01    -20.66     20.67
   35.3738     25.90     24.99    -20.62     20.67
   35.3840     25.23     24.98    -21.28     20.67
   35.3942     25.16     24.97    -21.33     20.67
   35.4043     24.91     24.96    -21.57     20.68
   35.4145     25.05     24.94    -21.42     20.68
   35.4246     24.84     24.93    -21.62     20.68
   35.4348     25.44     24.92    -21.00     20.68
   35.4450     26.05     24.91    -20.38     20.68
   35.4551     25.58     24.90    -20.84     20.68
   35.4653     24.86     24.88    -21.55     20.68
   35.4755     25.78     24.87    -20.62     20.68
   35.4856     24.32     24.86    -22.07     20.68
   35.4958     25.47     24.85    -20.90     20.68
   35.5060     25.10     24.84    -21.26     20.68
   35.5161     25.52     24.83    -20.83     20.68
   35.5263     25.51     24.82    -20.83     20.68
   35.5365     25.24     24.81    -21.09     20.68
   35.5466     25.04     24.80    -21.28     20.68
   35.5568     25.13     24.79    -21.18     20.68
   35.5669     24.76     24.78    -21.54     20.68
   35.5771     25.55     24.77    -20.74     20.68
   35.5873     25.56     24.76    -20.72     20.68
   35.5974     24.57     24.75    -21.70     20.68
   35.6076     24.26     24.74    -22.00     20.68
   35.6178     25.01     24.73    -21.24     20.68
   35.6279     25.24     24.72    -21.00     20.68
   35.6381     24.82     24.71    -21.41     20.68
   35.6483     24.84     24.70    -21.38     20.68
   35.6584     24.91     24.69    -21.30     20.68
   35.6686     25.80     24.68    -20.40     20.68
   35.6788     25.32     24.67    -20.87     20.68
   35.6889     25.45     24.66    -20.73     20.68
   35.6991     24.70     24.65    -21.48     20.68
   35.7093     25.28     24.64    -20.89     20.68
   35.7194     25.17     24.63    -20.99     20.68
   35.7296     25.05     24.62    -21.10     20.68
   35.7397     25.35     24.62    -20.79     20.68
   35.7499     24.95     24.61    -21.18     20.68
   35.7601     25.67     24.60    -20.45     20.68
   35.7702     25.46     24.59    -20.65     20.68
   35.7804     24.35     24.58    -21.76     20.68
   35.7906     24.98     24.57    -21.12     20.68
   35.8007     24.20     24.57    -21.89     20.68
   35.8109     24.71     24.56    -21.37     20.68
   35.8211     24.99     24.55    -21.08     20.68
   35.8312     24.86     24.54    -21.21     20.68
   35.8414     24.09     24.53    -21.97     20.68
   35.8516     25.20     24.53    -20.85     20.68
   35.8617     25.63     24.52    -20.41     20.68
   35.8719     25.03     24.51    -21.00     20.68
   35.8820     24.91     24.50    -21.12     20.68
   35.8922     24.87     24.49    -21.15     20.68
   35.9024     24.99     24.49    -21.02     20.68
   35.9125     24.74     24.48    -21.26     20.68
