 => TITLE: 
 => Data file name: C:\Users\stefano\Nextcloud2\uni\master-thesis\XRD\data\G305\G305--5-40-0.01-1000ms.xy
 => Instrm        :    1
 => Lambda(1&2)   :   1.54060  1.54060
 => Numb.of.points:      2951
 => Numb.of.peaks :         7
    2Theta     Yobs     Ycalc  Yobs-Ycal    Backg    Bragg     Posr  Intensity   FWHM    Eta
    6.0086     24.68     25.49    -22.33     20.00   18.5575      0.71     130.16  0.8037  0.6470
    6.0187     25.04     25.49    -21.98     20.00   20.4940      0.71      10.26  0.5248  0.6470
    6.0289     25.01     25.50    -22.01     20.00   22.4145      0.71      85.07  1.0723  0.6470
    6.0391     24.21     25.51    -22.82     20.00   28.3678      0.71      58.31  1.7529  0.6470
    6.0492     24.46     25.52    -22.58     20.00   29.8298      0.71      32.21  2.7524  0.6470
    6.0594     24.79     25.52    -22.26     20.00   33.3542      0.71      19.07  2.7524  0.6470
    6.0696     24.70     25.53    -22.36     20.00   19.5274      0.71    1204.87  8.5717  0.6470
    6.0797     24.29     25.54    -22.77     20.00
    6.0899     24.72     25.55    -22.35     20.00
    6.1001     24.35     25.56    -22.73     20.00
    6.1102     24.49     25.57    -22.60     20.00
    6.1204     24.20     25.57    -22.90     20.00
    6.1306     24.32     25.58    -22.79     20.00
    6.1407     24.40     25.59    -22.71     20.00
    6.1509     24.18     25.60    -22.94     20.00
    6.1611     24.45     25.61    -22.68     20.00
    6.1712     23.84     25.61    -23.30     20.00
    6.1814     24.26     25.62    -22.89     20.00
    6.1915     23.88     25.63    -23.27     20.00
    6.2017     24.03     25.64    -23.13     20.00
    6.2119     23.87     25.65    -23.30     20.00
    6.2220     24.30     25.66    -22.88     20.00
    6.2322     23.94     25.66    -23.25     20.00
    6.2424     23.80     25.67    -23.40     20.00
    6.2525     24.66     25.68    -22.54     20.00
    6.2627     23.66     25.69    -23.55     20.00
    6.2729     24.15     25.70    -23.07     20.00
    6.2830     24.28     25.71    -22.95     20.00
    6.2932     24.60     25.71    -22.64     20.00
    6.3034     23.36     25.72    -23.89     20.00
    6.3135     23.60     25.73    -23.66     20.00
    6.3237     23.59     25.74    -23.67     20.00
    6.3338     24.84     25.75    -22.43     20.00
    6.3440     24.73     25.76    -22.55     20.00
    6.3542     23.96     25.77    -23.33     20.00
    6.3643     24.35     25.77    -22.95     20.00
    6.3745     23.30     25.78    -24.01     20.00
    6.3847     23.27     25.79    -24.05     20.00
    6.3948     24.23     25.80    -23.09     20.00
    6.4050     23.91     25.81    -23.42     20.00
    6.4152     23.70     25.82    -23.64     20.00
    6.4253     24.16     25.83    -23.19     20.00
    6.4355     24.27     25.84    -23.09     20.00
    6.4457     23.38     25.84    -23.99     20.00
    6.4558     24.00     25.85    -23.38     20.00
    6.4660     23.90     25.86    -23.49     20.00
    6.4762     23.70     25.87    -23.69     20.00
    6.4863     23.93     25.88    -23.47     20.00
    6.4965     24.17     25.89    -23.24     20.00
    6.5066     23.94     25.90    -23.48     20.00
    6.5168     23.84     25.91    -23.59     20.00
    6.5270     23.93     25.92    -23.51     20.00
    6.5371     22.95     25.92    -24.50     20.00
    6.5473     23.12     25.93    -24.34     20.00
    6.5575     23.91     25.94    -23.56     20.00
    6.5676     24.20     25.95    -23.28     20.00
    6.5778     24.59     25.96    -22.90     20.00
    6.5880     24.02     25.97    -23.47     20.00
    6.5981     24.21     25.98    -23.29     20.00
    6.6083     24.17     25.99    -23.34     20.00
    6.6185     24.54     26.00    -22.98     20.00
    6.6286     24.49     26.01    -23.04     20.00
    6.6388     24.31     26.02    -23.23     20.00
    6.6489     24.59     26.03    -22.96     20.00
    6.6591     24.38     26.03    -23.18     20.00
    6.6693     23.68     26.04    -23.89     20.00
    6.6794     23.57     26.05    -24.01     20.00
    6.6896     24.78     26.06    -22.81     20.00
    6.6998     24.46     26.07    -23.14     20.00
    6.7099     24.46     26.08    -23.15     20.00
    6.7201     23.53     26.09    -24.09     20.00
    6.7303     25.36     26.10    -22.26     20.00
    6.7404     24.38     26.11    -23.25     20.00
    6.7506     23.39     26.12    -24.25     20.00
    6.7608     23.76     26.13    -23.89     20.00
    6.7709     24.01     26.14    -23.65     20.00
    6.7811     23.87     26.15    -23.80     20.00
    6.7913     24.43     26.16    -23.25     20.00
    6.8014     24.32     26.17    -23.37     20.00
    6.8116     23.98     26.18    -23.72     20.00
    6.8217     24.18     26.19    -23.53     20.00
    6.8319     22.94     26.20    -24.78     20.00
    6.8421     23.62     26.21    -24.11     20.00
    6.8522     24.19     26.22    -23.55     20.00
    6.8624     24.31     26.23    -23.44     20.00
    6.8726     24.38     26.24    -23.38     20.00
    6.8827     25.31     26.25    -22.46     20.00
    6.8929     24.70     26.26    -23.08     20.00
    6.9031     24.97     26.27    -22.82     20.00
    6.9132     23.93     26.28    -23.87     20.00
    6.9234     23.61     26.29    -24.20     20.00
    6.9336     23.90     26.30    -23.92     20.00
    6.9437     24.36     26.31    -23.47     20.00
    6.9539     24.58     26.32    -23.26     20.00
    6.9640     24.64     26.33    -23.21     20.00
    6.9742     24.35     26.34    -23.51     20.00
    6.9844     24.02     26.35    -23.85     20.00
    6.9945     24.35     26.36    -23.53     20.00
    7.0047     24.76     26.37    -23.13     20.00
    7.0149     24.35     26.38    -23.55     20.00
    7.0250     24.51     26.39    -23.40     20.00
    7.0352     24.78     26.40    -23.14     20.00
    7.0454     23.80     26.41    -24.13     20.00
    7.0555     24.70     26.42    -23.24     20.00
    7.0657     24.51     26.43    -23.44     20.00
    7.0759     24.20     26.44    -23.76     20.00
    7.0860     24.05     26.45    -23.92     20.00
    7.0962     25.04     26.46    -22.95     20.00
    7.1064     24.80     26.47    -23.20     20.00
    7.1165     25.11     26.48    -22.90     20.00
    7.1267     25.05     26.49    -22.97     20.00
    7.1368     24.51     26.50    -23.52     20.00
    7.1470     24.55     26.51    -23.49     20.00
    7.1572     24.93     26.53    -23.12     20.00
    7.1673     24.74     26.54    -23.32     20.00
    7.1775     25.26     26.55    -22.81     20.00
    7.1877     25.18     26.56    -22.90     20.00
    7.1978     25.03     26.57    -23.06     20.00
    7.2080     25.48     26.58    -22.62     20.00
    7.2182     25.16     26.59    -22.95     20.00
    7.2283     24.31     26.60    -23.82     20.00
    7.2385     24.27     26.61    -23.87     20.00
    7.2487     25.16     26.62    -22.99     20.00
    7.2588     24.41     26.63    -23.75     20.00
    7.2690     24.22     26.65    -23.95     20.00
    7.2791     25.06     26.66    -23.12     20.00
    7.2893     25.32     26.67    -22.87     20.00
    7.2995     25.57     26.68    -22.63     20.00
    7.3096     25.25     26.69    -22.96     20.00
    7.3198     25.34     26.70    -22.89     20.00
    7.3300     25.77     26.71    -22.47     20.00
    7.3401     26.04     26.72    -22.21     20.00
    7.3503     25.42     26.73    -22.84     20.00
    7.3605     24.62     26.75    -23.65     20.00
    7.3706     25.79     26.76    -22.49     20.00
    7.3808     24.51     26.77    -23.78     20.00
    7.3910     25.77     26.78    -22.53     20.00
    7.4011     25.38     26.79    -22.94     20.00
    7.4113     25.90     26.80    -22.43     20.00
    7.4215     25.30     26.82    -23.04     20.00
    7.4316     25.34     26.83    -23.01     20.00
    7.4418     25.52     26.84    -22.84     20.00
    7.4519     24.95     26.85    -23.42     20.00
    7.4621     25.12     26.86    -23.27     20.00
    7.4723     25.76     26.87    -22.64     20.00
    7.4824     24.71     26.89    -23.70     20.00
    7.4926     25.24     26.90    -23.18     20.00
    7.5028     24.85     26.91    -23.58     20.00
    7.5129     25.95     26.92    -22.50     20.00
    7.5231     26.25     26.93    -22.21     20.00
    7.5333     25.31     26.95    -23.16     20.00
    7.5434     25.09     26.96    -23.39     20.00
    7.5536     25.80     26.97    -22.69     20.00
    7.5638     26.45     26.98    -22.06     20.00
    7.5739     25.03     26.99    -23.49     20.00
    7.5841     25.90     27.01    -22.63     20.00
    7.5942     25.20     27.02    -23.34     20.00
    7.6044     25.68     27.03    -22.87     20.00
    7.6146     26.62     27.04    -21.95     20.00
    7.6247     25.74     27.05    -22.84     20.00
    7.6349     26.01     27.07    -22.58     20.00
    7.6451     26.16     27.08    -22.44     20.00
    7.6552     25.63     27.09    -22.99     20.00
    7.6654     24.76     27.10    -23.87     20.00
    7.6756     26.00     27.12    -22.64     20.00
    7.6857     25.89     27.13    -22.76     20.00
    7.6959     26.26     27.14    -22.41     20.00
    7.7061     26.25     27.15    -22.43     20.00
    7.7162     26.21     27.17    -22.48     20.00
    7.7264     25.78     27.18    -22.92     20.00
    7.7365     26.09     27.19    -22.63     20.00
    7.7467     27.25     27.21    -21.48     20.00
    7.7569     26.43     27.22    -22.31     20.00
    7.7670     26.20     27.23    -22.56     20.00
    7.7772     26.45     27.24    -22.32     20.00
    7.7874     26.66     27.26    -22.12     20.00
    7.7975     25.90     27.27    -22.89     20.00
    7.8077     26.32     27.28    -22.49     20.00
    7.8179     26.24     27.30    -22.58     20.00
    7.8280     25.88     27.31    -22.95     20.00
    7.8382     26.13     27.32    -22.72     20.00
    7.8484     26.83     27.34    -22.03     20.00
    7.8585     26.23     27.35    -22.64     20.00
    7.8687     26.56     27.36    -22.33     20.00
    7.8789     25.54     27.38    -23.36     20.00
    7.8890     26.43     27.39    -22.48     20.00
    7.8992     27.12     27.40    -21.81     20.00
    7.9093     26.48     27.42    -22.46     20.00
    7.9195     26.20     27.43    -22.75     20.00
    7.9297     27.01     27.44    -21.96     20.00
    7.9398     26.79     27.46    -22.19     20.00
    7.9500     26.51     27.47    -22.49     20.00
    7.9602     27.08     27.49    -21.93     20.00
    7.9703     26.48     27.50    -22.54     20.00
    7.9805     26.92     27.51    -22.12     20.00
    7.9907     26.82     27.53    -22.23     20.00
    8.0008     27.29     27.54    -21.77     20.00
    8.0110     27.29     27.55    -21.79     20.00
    8.0212     26.39     27.57    -22.70     20.00
    8.0313     27.56     27.58    -21.55     20.00
    8.0415     27.11     27.60    -22.01     20.00
    8.0516     26.87     27.61    -22.26     20.00
    8.0618     26.98     27.62    -22.17     20.00
    8.0720     27.41     27.64    -21.75     20.00
    8.0821     27.36     27.65    -21.82     20.00
    8.0923     27.07     27.67    -22.12     20.00
    8.1025     27.93     27.68    -21.28     20.00
    8.1126     27.32     27.70    -21.90     20.00
    8.1228     27.52     27.71    -21.72     20.00
    8.1330     27.63     27.73    -21.62     20.00
    8.1431     27.55     27.74    -21.71     20.00
    8.1533     26.53     27.75    -22.75     20.00
    8.1635     28.43     27.77    -20.86     20.00
    8.1736     27.16     27.78    -22.15     20.00
    8.1838     26.92     27.80    -22.40     20.00
    8.1940     27.98     27.81    -21.36     20.00
    8.2041     27.32     27.83    -22.03     20.00
    8.2143     27.37     27.84    -22.00     20.00
    8.2244     27.49     27.86    -21.89     20.00
    8.2346     27.59     27.87    -21.81     20.00
    8.2448     27.40     27.89    -22.01     20.00
    8.2549     27.35     27.90    -22.08     20.00
    8.2651     27.34     27.92    -22.10     20.00
    8.2753     27.82     27.93    -21.64     20.00
    8.2854     27.30     27.95    -22.17     20.00
    8.2956     27.76     27.97    -21.73     20.00
    8.3058     27.53     27.98    -21.97     20.00
    8.3159     27.97     28.00    -21.55     20.00
    8.3261     27.43     28.01    -22.11     20.00
    8.3363     27.90     28.03    -21.65     20.00
    8.3464     27.88     28.04    -21.69     20.00
    8.3566     28.52     28.06    -21.06     20.00
    8.3667     28.63     28.07    -20.97     20.00
    8.3769     28.18     28.09    -21.43     20.00
    8.3871     28.46     28.11    -21.17     20.00
    8.3972     28.38     28.12    -21.27     20.00
    8.4074     27.96     28.14    -21.70     20.00
    8.4176     29.32     28.15    -20.36     20.00
    8.4277     27.55     28.17    -22.14     20.00
    8.4379     28.09     28.19    -21.62     20.00
    8.4481     28.04     28.20    -21.69     20.00
    8.4582     28.00     28.22    -21.74     20.00
    8.4684     28.03     28.23    -21.73     20.00
    8.4786     27.82     28.25    -21.96     20.00
    8.4887     28.13     28.27    -21.66     20.00
    8.4989     28.90     28.28    -20.91     20.00
    8.5091     28.09     28.30    -21.73     20.00
    8.5192     27.41     28.32    -22.43     20.00
    8.5294     27.26     28.33    -22.60     20.00
    8.5395     28.25     28.35    -21.62     20.00
    8.5497     28.02     28.37    -21.87     20.00
    8.5599     28.40     28.38    -21.51     20.00
    8.5700     28.42     28.40    -21.51     20.00
    8.5802     30.01     28.42    -19.93     20.00
    8.5904     28.73     28.44    -21.23     20.00
    8.6005     29.41     28.45    -20.57     20.00
    8.6107     28.20     28.47    -21.79     20.00
    8.6209     28.50     28.49    -21.51     20.00
    8.6310     28.51     28.50    -21.52     20.00
    8.6412     28.68     28.52    -21.37     20.00
    8.6514     28.11     28.54    -21.95     20.00
    8.6615     28.18     28.56    -21.90     20.00
    8.6717     28.91     28.57    -21.19     20.00
    8.6818     28.65     28.59    -21.47     20.00
    8.6920     28.95     28.61    -21.18     20.00
    8.7022     28.55     28.63    -21.60     20.00
    8.7123     28.83     28.64    -21.34     20.00
    8.7225     28.70     28.66    -21.49     20.00
    8.7327     28.18     28.68    -22.02     20.00
    8.7428     29.66     28.70    -20.56     20.00
    8.7530     29.33     28.72    -20.91     20.00
    8.7632     28.32     28.73    -21.94     20.00
    8.7733     29.76     28.75    -20.52     20.00
    8.7835     29.58     28.77    -20.71     20.00
    8.7937     29.04     28.79    -21.27     20.00
    8.8038     29.20     28.81    -21.13     20.00
    8.8140     28.85     28.83    -21.50     20.00
    8.8242     29.37     28.84    -21.00     20.00
    8.8343     29.38     28.86    -21.01     20.00
    8.8445     28.94     28.88    -21.47     20.00
    8.8546     29.03     28.90    -21.39     20.00
    8.8648     30.46     28.92    -19.98     20.00
    8.8750     29.88     28.94    -20.58     20.00
    8.8851     29.05     28.96    -21.43     20.00
    8.8953     30.18     28.98    -20.32     20.00
    8.9055     29.62     28.99    -20.90     20.00
    8.9156     30.10     29.01    -20.44     20.00
    8.9258     29.60     29.03    -20.96     20.00
    8.9360     29.42     29.05    -21.16     20.00
    8.9461     29.64     29.07    -20.96     20.00
    8.9563     29.57     29.09    -21.05     20.00
    8.9665     29.89     29.11    -20.74     20.00
    8.9766     29.15     29.13    -21.50     20.00
    8.9868     29.61     29.15    -21.06     20.00
    8.9969     29.87     29.17    -20.82     20.00
    9.0071     30.12     29.19    -20.59     20.00
    9.0173     29.33     29.21    -21.40     20.00
    9.0274     29.38     29.23    -21.37     20.00
    9.0376     29.82     29.25    -20.95     20.00
    9.0478     29.39     29.27    -21.40     20.00
    9.0579     30.34     29.29    -20.47     20.00
    9.0681     31.23     29.31    -19.60     20.00
    9.0783     29.98     29.33    -20.87     20.00
    9.0884     29.41     29.35    -21.46     20.00
    9.0986     29.38     29.37    -21.52     20.00
    9.1088     30.08     29.39    -20.84     20.00
    9.1189     30.01     29.41    -20.93     20.00
    9.1291     29.83     29.43    -21.13     20.00
    9.1393     29.38     29.45    -21.60     20.00
    9.1494     30.15     29.47    -20.85     20.00
    9.1596     30.09     29.50    -20.93     20.00
    9.1697     30.41     29.52    -20.63     20.00
    9.1799     30.32     29.54    -20.74     20.00
    9.1901     30.36     29.56    -20.72     20.00
    9.2002     30.42     29.58    -20.68     20.00
    9.2104     30.08     29.60    -21.05     20.00
    9.2206     29.26     29.62    -21.89     20.00
    9.2307     29.99     29.64    -21.18     20.00
    9.2409     31.73     29.67    -19.46     20.00
    9.2511     30.81     29.69    -20.40     20.00
    9.2612     30.96     29.71    -20.27     20.00
    9.2714     30.69     29.73    -20.57     20.00
    9.2816     30.05     29.75    -21.23     20.00
    9.2917     30.95     29.78    -20.35     20.00
    9.3019     30.96     29.80    -20.36     20.00
    9.3120     30.59     29.82    -20.75     20.00
    9.3222     30.11     29.84    -21.26     20.00
    9.3324     30.83     29.86    -20.56     20.00
    9.3425     31.51     29.89    -19.90     20.00
    9.3527     30.83     29.91    -20.60     20.00
    9.3629     31.98     29.93    -19.48     20.00
    9.3730     30.54     29.95    -20.94     20.00
    9.3832     32.07     29.98    -19.43     20.00
    9.3934     31.73     30.00    -19.79     20.00
    9.4035     30.62     30.02    -20.93     20.00
    9.4137     31.16     30.05    -20.41     20.00
    9.4239     31.55     30.07    -20.04     20.00
    9.4340     31.04     30.09    -20.58     20.00
    9.4442     31.12     30.12    -20.52     20.00
    9.4544     31.60     30.14    -20.06     20.00
    9.4645     30.39     30.16    -21.30     20.00
    9.4747     31.86     30.19    -19.85     20.00
    9.4848     31.87     30.21    -19.86     20.00
    9.4950     31.26     30.23    -20.50     20.00
    9.5052     31.17     30.26    -20.61     20.00
    9.5153     30.61     30.28    -21.19     20.00
    9.5255     31.57     30.31    -20.26     20.00
    9.5357     31.40     30.33    -20.45     20.00
    9.5458     31.38     30.35    -20.50     20.00
    9.5560     31.65     30.38    -20.25     20.00
    9.5662     30.74     30.40    -21.19     20.00
    9.5763     32.24     30.43    -19.71     20.00
    9.5865     31.46     30.45    -20.52     20.00
    9.5967     30.99     30.48    -21.01     20.00
    9.6068     31.54     30.50    -20.48     20.00
    9.6170     31.01     30.53    -21.04     20.00
    9.6271     32.52     30.55    -19.55     20.00
    9.6373     31.99     30.58    -20.11     20.00
    9.6475     30.45     30.60    -21.67     20.00
    9.6576     31.19     30.63    -20.96     20.00
    9.6678     31.51     30.65    -20.67     20.00
    9.6780     31.36     30.68    -20.84     20.00
    9.6881     31.19     30.70    -21.04     20.00
    9.6983     31.77     30.73    -20.48     20.00
    9.7085     31.51     30.75    -20.77     20.00
    9.7186     31.91     30.78    -20.39     20.00
    9.7288     32.13     30.81    -20.20     20.00
    9.7390     31.59     30.83    -20.77     20.00
    9.7491     31.71     30.86    -20.67     20.00
    9.7593     31.52     30.88    -20.89     20.00
    9.7694     32.20     30.91    -20.23     20.00
    9.7796     31.87     30.94    -20.59     20.00
    9.7898     31.59     30.96    -20.90     20.00
    9.7999     32.69     30.99    -19.82     20.00
    9.8101     32.19     31.02    -20.35     20.00
    9.8203     32.41     31.04    -20.16     20.00
    9.8304     32.43     31.07    -20.17     20.00
    9.8406     32.02     31.10    -20.60     20.00
    9.8508     32.18     31.13    -20.47     20.00
    9.8609     32.79     31.15    -19.89     20.00
    9.8711     32.26     31.18    -20.44     20.00
    9.8813     31.93     31.21    -20.80     20.00
    9.8914     31.56     31.24    -21.20     20.00
    9.9016     32.39     31.26    -20.40     20.00
    9.9118     31.96     31.29    -20.86     20.00
    9.9219     32.05     31.32    -20.79     20.00
    9.9321     32.15     31.35    -20.72     20.00
    9.9422     32.40     31.38    -20.50     20.00
    9.9524     32.04     31.40    -20.89     20.00
    9.9626     32.32     31.43    -20.64     20.00
    9.9727     32.12     31.46    -20.86     20.00
    9.9829     33.16     31.49    -19.85     20.00
    9.9931     33.37     31.52    -19.67     20.00
   10.0032     32.29     31.55    -20.78     20.00
   10.0134     32.72     31.58    -20.38     20.00
   10.0236     32.84     31.61    -20.29     20.00
   10.0337     33.40     31.63    -19.76     20.00
   10.0439     32.79     31.66    -20.40     20.00
   10.0541     33.41     31.69    -19.81     20.00
   10.0642     33.63     31.72    -19.62     20.00
   10.0744     32.17     31.75    -21.11     20.00
   10.0845     33.22     31.78    -20.09     20.00
   10.0947     33.11     31.81    -20.23     20.00
   10.1049     32.84     31.84    -20.53     20.00
   10.1150     33.62     31.87    -19.78     20.00
   10.1252     32.57     31.90    -20.86     20.00
   10.1354     32.76     31.93    -20.70     20.00
   10.1455     33.71     31.96    -19.78     20.00
   10.1557     33.32     31.99    -20.20     20.00
   10.1659     32.99     32.03    -20.56     20.00
   10.1760     32.77     32.06    -20.81     20.00
   10.1862     33.32     32.09    -20.29     20.00
   10.1964     32.79     32.12    -20.85     20.00
   10.2065     33.30     32.15    -20.37     20.00
   10.2167     33.16     32.18    -20.54     20.00
   10.2269     33.23     32.21    -20.51     20.00
   10.2370     33.01     32.24    -20.76     20.00
   10.2472     33.04     32.28    -20.76     20.00
   10.2573     34.02     32.31    -19.81     20.00
   10.2675     34.08     32.34    -19.78     20.00
   10.2777     34.10     32.37    -19.80     20.00
   10.2878     34.21     32.40    -19.72     20.00
   10.2980     34.39     32.44    -19.57     20.00
   10.3082     33.43     32.47    -20.56     20.00
   10.3183     33.48     32.50    -20.55     20.00
   10.3285     33.37     32.53    -20.69     20.00
   10.3387     32.70     32.57    -21.39     20.00
   10.3488     33.79     32.60    -20.33     20.00
   10.3590     34.04     32.63    -20.12     20.00
   10.3692     33.85     32.67    -20.34     20.00
   10.3793     33.08     32.70    -21.14     20.00
   10.3895     33.91     32.73    -20.35     20.00
   10.3996     33.55     32.77    -20.74     20.00
   10.4098     33.98     32.80    -20.34     20.00
   10.4200     34.02     32.84    -20.34     20.00
   10.4301     33.52     32.87    -20.87     20.00
   10.4403     34.40     32.90    -20.03     20.00
   10.4505     34.02     32.94    -20.44     20.00
   10.4606     33.97     32.97    -20.53     20.00
   10.4708     34.74     33.01    -19.79     20.00
   10.4810     34.09     33.04    -20.48     20.00
   10.4911     34.29     33.08    -20.31     20.00
   10.5013     34.07     33.11    -20.57     20.00
   10.5115     34.62     33.15    -20.05     20.00
   10.5216     34.46     33.18    -20.25     20.00
   10.5318     33.85     33.22    -20.89     20.00
   10.5420     35.20     33.25    -19.58     20.00
   10.5521     34.07     33.29    -20.74     20.00
   10.5623     33.97     33.32    -20.88     20.00
   10.5724     34.20     33.36    -20.68     20.00
   10.5826     34.88     33.40    -20.04     20.00
   10.5928     34.35     33.43    -20.61     20.00
   10.6029     34.39     33.47    -20.60     20.00
   10.6131     34.62     33.51    -20.41     20.00
   10.6233     34.09     33.54    -20.98     20.00
   10.6334     34.46     33.58    -20.64     20.00
   10.6436     34.91     33.62    -20.23     20.00
   10.6538     34.09     33.65    -21.09     20.00
   10.6639     34.78     33.69    -20.44     20.00
   10.6741     35.08     33.73    -20.17     20.00
   10.6843     34.84     33.77    -20.45     20.00
   10.6944     33.88     33.80    -21.45     20.00
   10.7046     34.78     33.84    -20.59     20.00
   10.7147     35.86     33.88    -19.54     20.00
   10.7249     35.12     33.92    -20.32     20.00
   10.7351     34.27     33.96    -21.21     20.00
   10.7452     34.76     33.99    -20.76     20.00
   10.7554     35.16     34.03    -20.40     20.00
   10.7656     34.16     34.07    -21.44     20.00
   10.7757     35.34     34.11    -20.30     20.00
   10.7859     35.68     34.15    -19.99     20.00
   10.7961     35.49     34.19    -20.22     20.00
   10.8062     35.12     34.23    -20.63     20.00
   10.8164     35.78     34.27    -20.01     20.00
   10.8266     34.97     34.31    -20.86     20.00
   10.8367     34.65     34.35    -21.22     20.00
   10.8469     35.12     34.39    -20.79     20.00
   10.8571     35.19     34.43    -20.76     20.00
   10.8672     34.90     34.47    -21.09     20.00
   10.8774     35.75     34.51    -20.28     20.00
   10.8875     34.93     34.55    -21.14     20.00
   10.8977     35.83     34.59    -20.29     20.00
   10.9079     36.41     34.63    -19.75     20.00
   10.9180     35.80     34.67    -20.40     20.00
   10.9282     34.83     34.71    -21.41     20.00
   10.9384     35.65     34.76    -20.63     20.00
   10.9485     36.55     34.80    -19.77     20.00
   10.9587     35.82     34.84    -20.54     20.00
   10.9689     35.47     34.88    -20.94     20.00
   10.9790     35.74     34.92    -20.71     20.00
   10.9892     35.54     34.97    -20.95     20.00
   10.9994     35.91     35.01    -20.62     20.00
   11.0095     35.50     35.05    -21.07     20.00
   11.0197     36.45     35.09    -20.17     20.00
   11.0298     35.75     35.14    -20.91     20.00
   11.0400     35.88     35.18    -20.82     20.00
   11.0502     35.26     35.22    -21.49     20.00
   11.0603     35.96     35.27    -20.83     20.00
   11.0705     36.03     35.31    -20.80     20.00
   11.0807     35.93     35.35    -20.95     20.00
   11.0908     35.94     35.40    -20.98     20.00
   11.1010     36.58     35.44    -20.39     20.00
   11.1112     37.12     35.49    -19.89     20.00
   11.1213     36.28     35.53    -20.77     20.00
   11.1315     36.29     35.58    -20.81     20.00
   11.1417     37.03     35.62    -20.11     20.00
   11.1518     36.23     35.67    -20.96     20.00
   11.1620     35.71     35.71    -21.52     20.00
   11.1722     37.25     35.76    -20.03     20.00
   11.1823     36.66     35.80    -20.67     20.00
   11.1925     35.99     35.85    -21.38     20.00
   11.2026     36.34     35.89    -21.08     20.00
   11.2128     36.63     35.94    -20.83     20.00
   11.2230     35.99     35.99    -21.52     20.00
   11.2331     36.72     36.03    -20.84     20.00
   11.2433     37.32     36.08    -20.28     20.00
   11.2535     35.33     36.13    -22.32     20.00
   11.2636     37.48     36.17    -20.22     20.00
   11.2738     36.93     36.22    -20.81     20.00
   11.2840     36.66     36.27    -21.13     20.00
   11.2941     37.74     36.31    -20.10     20.00
   11.3043     37.25     36.36    -20.64     20.00
   11.3145     36.60     36.41    -21.33     20.00
   11.3246     37.15     36.46    -20.83     20.00
   11.3348     38.09     36.51    -19.94     20.00
   11.3449     36.79     36.55    -21.29     20.00
   11.3551     37.10     36.60    -21.03     20.00
   11.3653     37.60     36.65    -20.58     20.00
   11.3754     37.40     36.70    -20.82     20.00
   11.3856     37.51     36.75    -20.76     20.00
   11.3958     37.55     36.80    -20.77     20.00
   11.4059     37.75     36.85    -20.62     20.00
   11.4161     37.16     36.90    -21.26     20.00
   11.4263     37.49     36.95    -20.98     20.00
   11.4364     37.79     37.00    -20.73     20.00
   11.4466     37.87     37.05    -20.70     20.00
   11.4568     38.09     37.10    -20.53     20.00
   11.4669     36.96     37.15    -21.71     20.00
   11.4771     37.88     37.20    -20.84     20.00
   11.4873     38.03     37.25    -20.75     20.00
   11.4974     37.64     37.30    -21.19     20.00
   11.5076     37.61     37.35    -21.27     20.00
   11.5177     38.26     37.41    -20.67     20.00
   11.5279     37.27     37.46    -21.71     20.00
   11.5381     38.24     37.51    -20.79     20.00
   11.5482     38.47     37.56    -20.62     20.00
   11.5584     38.39     37.61    -20.75     20.00
   11.5686     37.84     37.67    -21.35     20.00
   11.5787     38.51     37.72    -20.73     20.00
   11.5889     38.48     37.77    -20.82     20.00
   11.5991     38.16     37.83    -21.19     20.00
   11.6092     37.84     37.88    -21.56     20.00
   11.6194     38.07     37.93    -21.39     20.00
   11.6296     37.74     37.99    -21.77     20.00
   11.6397     38.91     38.04    -20.66     20.00
   11.6499     37.54     38.10    -22.08     20.00
   11.6600     38.23     38.15    -21.44     20.00
   11.6702     38.45     38.20    -21.28     20.00
   11.6804     38.95     38.26    -20.83     20.00
   11.6905     38.55     38.31    -21.29     20.00
   11.7007     38.68     38.37    -21.21     20.00
   11.7109     38.95     38.43    -21.00     20.00
   11.7210     38.45     38.48    -21.55     20.00
   11.7312     39.52     38.54    -20.54     20.00
   11.7414     39.16     38.59    -20.96     20.00
   11.7515     38.16     38.65    -22.01     20.00
   11.7617     38.55     38.71    -21.68     20.00
   11.7719     39.22     38.76    -21.07     20.00
   11.7820     38.87     38.82    -21.47     20.00
   11.7922     38.76     38.88    -21.64     20.00
   11.8023     38.41     38.93    -22.05     20.00
   11.8125     38.43     38.99    -22.09     20.00
   11.8227     39.74     39.05    -20.83     20.00
   11.8328     39.35     39.11    -21.28     20.00
   11.8430     39.22     39.17    -21.47     20.00
   11.8532     39.00     39.22    -21.75     20.00
   11.8633     39.15     39.28    -21.66     20.00
   11.8735     39.39     39.34    -21.48     20.00
   11.8837     39.73     39.40    -21.19     20.00
   11.8938     39.43     39.46    -21.55     20.00
   11.9040     40.18     39.52    -20.86     20.00
   11.9142     39.29     39.58    -21.81     20.00
   11.9243     39.58     39.64    -21.58     20.00
   11.9345     39.62     39.70    -21.60     20.00
   11.9447     39.56     39.76    -21.72     20.00
   11.9548     39.89     39.82    -21.45     20.00
   11.9650     40.11     39.88    -21.29     20.00
   11.9751     39.28     39.94    -22.19     20.00
   11.9853     40.71     40.00    -20.82     20.00
   11.9955     40.75     40.06    -20.84     20.00
   12.0056     40.38     40.13    -21.27     20.00
   12.0158     40.70     40.19    -21.01     20.00
   12.0260     39.71     40.25    -22.06     20.00
   12.0361     40.13     40.31    -21.71     20.00
   12.0463     40.52     40.37    -21.38     20.00
   12.0565     39.46     40.44    -22.50     20.00
   12.0666     40.37     40.50    -21.65     20.00
   12.0768     40.34     40.56    -21.75     20.00
   12.0870     40.12     40.63    -22.03     20.00
   12.0971     40.18     40.69    -22.04     20.00
   12.1073     39.77     40.76    -22.51     20.00
   12.1174     41.18     40.82    -21.16     20.00
   12.1276     40.87     40.88    -21.54     20.00
   12.1378     40.48     40.95    -21.99     20.00
   12.1479     42.02     41.01    -20.52     20.00
   12.1581     41.13     41.08    -21.47     20.00
   12.1683     41.30     41.14    -21.37     20.00
   12.1784     41.32     41.21    -21.41     20.00
   12.1886     41.24     41.28    -21.56     20.00
   12.1988     40.51     41.34    -22.36     20.00
   12.2089     40.87     41.41    -22.06     20.00
   12.2191     41.60     41.47    -21.40     20.00
   12.2293     42.18     41.54    -20.89     20.00
   12.2394     40.27     41.61    -22.86     20.00
   12.2496     41.50     41.68    -21.70     20.00
   12.2598     41.01     41.74    -22.26     20.00
   12.2699     41.40     41.81    -21.93     20.00
   12.2801     40.99     41.88    -22.41     20.00
   12.2902     42.09     41.95    -21.38     20.00
   12.3004     43.01     42.01    -20.53     20.00
   12.3106     42.49     42.08    -21.12     20.00
   12.3207     41.83     42.15    -21.85     20.00
   12.3309     42.20     42.22    -21.55     20.00
   12.3411     42.46     42.29    -21.36     20.00
   12.3512     42.49     42.36    -21.39     20.00
   12.3614     41.39     42.43    -22.56     20.00
   12.3716     41.73     42.50    -22.29     20.00
   12.3817     42.61     42.57    -21.48     20.00
   12.3919     41.41     42.64    -22.76     20.00
   12.4021     42.46     42.71    -21.78     20.00
   12.4122     41.76     42.78    -22.55     20.00
   12.4224     42.48     42.85    -21.90     20.00
   12.4325     42.93     42.93    -21.52     20.00
   12.4427     42.92     43.00    -21.60     20.00
   12.4529     41.63     43.07    -22.96     20.00
   12.4630     42.64     43.14    -22.03     20.00
   12.4732     43.21     43.22    -21.53     20.00
   12.4834     43.68     43.29    -21.13     20.00
   12.4935     42.33     43.36    -22.55     20.00
   12.5037     43.17     43.43    -21.79     20.00
   12.5139     43.18     43.51    -21.85     20.00
   12.5240     42.99     43.58    -22.12     20.00
   12.5342     44.00     43.66    -21.18     20.00
   12.5444     42.60     43.73    -22.65     20.00
   12.5545     44.78     43.80    -20.55     20.00
   12.5647     43.83     43.88    -21.57     20.00
   12.5749     43.61     43.96    -21.87     20.00
   12.5850     44.59     44.03    -20.96     20.00
   12.5952     43.08     44.11    -22.55     20.00
   12.6053     43.13     44.18    -22.58     20.00
   12.6155     44.15     44.26    -21.63     20.00
   12.6257     42.69     44.33    -23.17     20.00
   12.6358     43.47     44.41    -22.46     20.00
   12.6460     44.37     44.49    -21.64     20.00
   12.6562     44.70     44.57    -21.39     20.00
   12.6663     44.25     44.64    -21.92     20.00
   12.6765     44.24     44.72    -22.00     20.00
   12.6867     43.73     44.80    -22.59     20.00
   12.6968     44.20     44.88    -22.20     20.00
   12.7070     44.75     44.95    -21.73     20.00
   12.7172     44.98     45.03    -21.58     20.00
   12.7273     44.45     45.11    -22.19     20.00
   12.7375     43.83     45.19    -22.89     20.00
   12.7476     45.23     45.27    -21.56     20.00
   12.7578     45.15     45.35    -21.72     20.00
   12.7680     44.40     45.43    -22.56     20.00
   12.7781     44.87     45.51    -22.16     20.00
   12.7883     45.22     45.59    -21.90     20.00
   12.7985     44.87     45.67    -22.33     20.00
   12.8086     46.37     45.75    -20.91     20.00
   12.8188     44.95     45.84    -22.41     20.00
   12.8290     44.98     45.92    -22.46     20.00
   12.8391     45.01     46.00    -22.51     20.00
   12.8493     45.09     46.08    -22.51     20.00
   12.8595     45.96     46.16    -21.73     20.00
   12.8696     45.76     46.25    -22.01     20.00
   12.8798     45.62     46.33    -22.23     20.00
   12.8900     45.60     46.41    -22.34     20.00
   12.9001     46.01     46.50    -22.01     20.00
   12.9103     45.56     46.58    -22.54     20.00
   12.9204     46.21     46.66    -21.98     20.00
   12.9306     45.26     46.75    -23.01     20.00
   12.9408     45.98     46.83    -22.38     20.00
   12.9509     45.77     46.92    -22.67     20.00
   12.9611     45.74     47.00    -22.79     20.00
   12.9713     45.80     47.09    -22.81     20.00
   12.9814     47.27     47.17    -21.43     20.00
   12.9916     46.01     47.26    -22.77     20.00
   13.0018     47.16     47.35    -21.71     20.00
   13.0119     46.96     47.43    -22.00     20.00
   13.0221     46.68     47.52    -22.36     20.00
   13.0323     46.40     47.61    -22.73     20.00
   13.0424     47.24     47.69    -21.98     20.00
   13.0526     46.61     47.78    -22.70     20.00
   13.0627     46.41     47.87    -22.98     20.00
   13.0729     47.46     47.96    -22.02     20.00
   13.0831     47.41     48.05    -22.16     20.00
   13.0932     47.63     48.13    -22.03     20.00
   13.1034     47.77     48.22    -21.98     20.00
   13.1136     47.52     48.31    -22.32     20.00
   13.1237     47.60     48.40    -22.33     20.00
   13.1339     46.44     48.49    -23.58     20.00
   13.1441     47.95     48.58    -22.16     20.00
   13.1542     47.88     48.67    -22.32     20.00
   13.1644     47.49     48.76    -22.80     20.00
   13.1746     48.06     48.85    -22.32     20.00
   13.1847     47.92     48.95    -22.55     20.00
   13.1949     48.29     49.04    -22.27     20.00
   13.2051     47.39     49.13    -23.26     20.00
   13.2152     46.51     49.22    -24.24     20.00
   13.2254     47.70     49.31    -23.14     20.00
   13.2355     48.73     49.41    -22.20     20.00
   13.2457     49.35     49.50    -21.67     20.00
   13.2559     49.07     49.59    -22.05     20.00
   13.2660     48.91     49.69    -22.30     20.00
   13.2762     48.95     49.78    -22.35     20.00
   13.2864     48.20     49.87    -23.20     20.00
   13.2965     48.59     49.97    -22.90     20.00
   13.3067     49.08     50.06    -22.51     20.00
   13.3169     49.67     50.16    -22.01     20.00
   13.3270     49.25     50.25    -22.53     20.00
   13.3372     48.52     50.35    -23.35     20.00
   13.3474     49.73     50.45    -22.24     20.00
   13.3575     49.74     50.54    -22.32     20.00
   13.3677     50.19     50.64    -21.97     20.00
   13.3778     49.27     50.73    -22.99     20.00
   13.3880     49.16     50.83    -23.20     20.00
   13.3982     50.17     50.93    -22.28     20.00
   13.4083     50.52     51.03    -22.03     20.00
   13.4185     49.34     51.12    -23.31     20.00
   13.4287     50.52     51.22    -22.23     20.00
   13.4388     50.93     51.32    -21.91     20.00
   13.4490     50.54     51.42    -22.40     20.00
   13.4592     48.86     51.52    -24.18     20.00
   13.4693     50.33     51.62    -22.81     20.00
   13.4795     49.89     51.72    -23.35     20.00
   13.4897     49.63     51.82    -23.71     20.00
   13.4998     49.85     51.92    -23.59     20.00
   13.5100     51.41     52.02    -22.13     20.00
   13.5201     50.87     52.12    -22.77     20.00
   13.5303     51.70     52.22    -22.04     20.00
   13.5405     50.08     52.32    -23.77     20.00
   13.5506     51.46     52.42    -22.49     20.00
   13.5608     51.16     52.52    -22.89     20.00
   13.5710     51.73     52.63    -22.42     20.00
   13.5811     51.49     52.73    -22.76     20.00
   13.5913     51.30     52.83    -23.06     20.00
   13.6015     52.22     52.94    -22.24     20.00
   13.6116     52.13     53.04    -22.43     20.00
   13.6218     51.70     53.14    -22.97     20.00
   13.6320     51.00     53.25    -23.77     20.00
   13.6421     51.09     53.35    -23.79     20.00
   13.6523     53.80     53.46    -21.18     20.00
   13.6625     51.87     53.56    -23.22     20.00
   13.6726     52.37     53.67    -22.82     20.00
   13.6828     51.82     53.77    -23.48     20.00
   13.6929     53.15     53.88    -22.25     20.00
   13.7031     51.95     53.98    -23.56     20.00
   13.7133     52.97     54.09    -22.64     20.00
   13.7234     52.40     54.20    -23.32     20.00
   13.7336     52.62     54.30    -23.21     20.00
   13.7438     52.89     54.41    -23.05     20.00
   13.7539     52.96     54.52    -23.08     20.00
   13.7641     53.68     54.63    -22.47     20.00
   13.7743     52.60     54.74    -23.66     20.00
   13.7844     51.94     54.84    -24.43     20.00
   13.7946     54.11     54.95    -22.37     20.00
   13.8048     53.18     55.06    -23.41     20.00
   13.8149     53.34     55.17    -23.35     20.00
   13.8251     54.71     55.28    -22.09     20.00
   13.8352     53.74     55.39    -23.17     20.00
   13.8454     55.10     55.50    -21.92     20.00
   13.8556     53.57     55.61    -23.57     20.00
   13.8657     53.89     55.72    -23.36     20.00
   13.8759     54.91     55.83    -22.45     20.00
   13.8861     55.63     55.95    -21.84     20.00
   13.8962     54.64     56.06    -22.94     20.00
   13.9064     54.74     56.17    -22.95     20.00
   13.9166     54.87     56.28    -22.94     20.00
   13.9267     55.72     56.39    -22.20     20.00
   13.9369     55.26     56.51    -22.77     20.00
   13.9471     55.91     56.62    -22.24     20.00
   13.9572     56.11     56.73    -22.15     20.00
   13.9674     54.88     56.85    -23.49     20.00
   13.9776     55.53     56.96    -22.96     20.00
   13.9877     55.89     57.08    -22.71     20.00
   13.9979     55.38     57.19    -23.34     20.00
   14.0080     56.59     57.31    -22.24     20.00
   14.0182     55.52     57.42    -23.43     20.00
   14.0284     55.98     57.54    -23.08     20.00
   14.0385     56.29     57.65    -22.89     20.00
   14.0487     55.74     57.77    -23.56     20.00
   14.0589     56.12     57.89    -23.29     20.00
   14.0690     57.14     58.00    -22.39     20.00
   14.0792     57.59     58.12    -22.06     20.00
   14.0894     56.13     58.24    -23.63     20.00
   14.0995     56.28     58.36    -23.60     20.00
   14.1097     56.74     58.48    -23.26     20.00
   14.1199     56.01     58.60    -24.11     20.00
   14.1300     57.38     58.71    -22.86     20.00
   14.1402     58.20     58.83    -22.16     20.00
   14.1503     56.36     58.95    -24.12     20.00
   14.1605     58.07     59.07    -22.53     20.00
   14.1707     57.16     59.19    -23.56     20.00
   14.1808     58.50     59.31    -22.34     20.00
   14.1910     56.40     59.43    -24.56     20.00
   14.2012     57.41     59.55    -23.67     20.00
   14.2113     58.12     59.67    -23.08     20.00
   14.2215     58.58     59.80    -22.74     20.00
   14.2317     57.26     59.92    -24.18     20.00
   14.2418     58.11     60.04    -23.45     20.00
   14.2520     59.49     60.16    -22.20     20.00
   14.2622     58.93     60.29    -22.88     20.00
   14.2723     58.48     60.41    -23.45     20.00
   14.2825     59.71     60.53    -22.35     20.00
   14.2927     59.31     60.66    -22.87     20.00
   14.3028     58.38     60.78    -23.92     20.00
   14.3130     60.40     60.91    -22.03     20.00
   14.3231     58.42     61.03    -24.13     20.00
   14.3333     59.39     61.15    -23.29     20.00
   14.3435     59.46     61.28    -23.34     20.00
   14.3536     60.56     61.41    -22.37     20.00
   14.3638     60.66     61.53    -22.40     20.00
   14.3740     60.15     61.66    -23.03     20.00
   14.3841     59.69     61.78    -23.62     20.00
   14.3943     61.20     61.91    -22.23     20.00
   14.4045     60.09     62.04    -23.47     20.00
   14.4146     60.76     62.17    -22.93     20.00
   14.4248     59.70     62.29    -24.12     20.00
   14.4350     60.77     62.42    -23.18     20.00
   14.4451     61.27     62.55    -22.80     20.00
   14.4553     60.58     62.68    -23.62     20.00
   14.4654     61.96     62.81    -22.37     20.00
   14.4756     60.24     62.94    -24.22     20.00
   14.4858     61.08     63.07    -23.51     20.00
   14.4959     62.45     63.20    -22.27     20.00
   14.5061     62.39     63.33    -22.46     20.00
   14.5163     61.85     63.46    -23.13     20.00
   14.5264     63.28     63.59    -21.83     20.00
   14.5366     62.97     63.72    -22.27     20.00
   14.5468     61.03     63.85    -24.34     20.00
   14.5569     62.14     63.98    -23.36     20.00
   14.5671     61.76     64.11    -23.88     20.00
   14.5773     61.71     64.25    -24.06     20.00
   14.5874     63.19     64.38    -22.71     20.00
   14.5976     62.96     64.51    -23.07     20.00
   14.6078     63.66     64.64    -22.51     20.00
   14.6179     63.76     64.78    -22.54     20.00
   14.6281     62.20     64.91    -24.24     20.00
   14.6382     63.04     65.04    -23.53     20.00
   14.6484     65.22     65.18    -21.48     20.00
   14.6586     64.25     65.31    -22.59     20.00
   14.6687     64.32     65.45    -22.65     20.00
   14.6789     64.74     65.58    -22.37     20.00
   14.6891     64.23     65.72    -23.01     20.00
   14.6992     64.21     65.86    -23.17     20.00
   14.7094     63.48     65.99    -24.04     20.00
   14.7196     64.62     66.13    -23.03     20.00
   14.7297     65.85     66.27    -21.94     20.00
   14.7399     64.57     66.40    -23.36     20.00
   14.7501     64.67     66.54    -23.40     20.00
   14.7602     65.80     66.68    -22.40     20.00
   14.7704     65.43     66.82    -22.91     20.00
   14.7805     64.81     66.95    -23.67     20.00
   14.7907     65.80     67.09    -22.82     20.00
   14.8009     67.11     67.23    -21.65     20.00
   14.8110     64.30     67.37    -24.59     20.00
   14.8212     65.62     67.51    -23.41     20.00
   14.8314     68.16     67.65    -21.02     20.00
   14.8415     66.94     67.79    -22.37     20.00
   14.8517     66.13     67.93    -23.33     20.00
   14.8619     66.48     68.07    -23.12     20.00
   14.8720     67.26     68.21    -22.48     20.00
   14.8822     66.82     68.35    -23.06     20.00
   14.8924     68.57     68.50    -21.45     20.00
   14.9025     67.49     68.64    -22.67     20.00
   14.9127     65.88     68.78    -24.42     20.00
   14.9229     67.24     68.92    -23.21     20.00
   14.9330     66.38     69.07    -24.21     20.00
   14.9432     67.54     69.21    -23.19     20.00
   14.9533     67.60     69.35    -23.28     20.00
   14.9635     67.38     69.50    -23.64     20.00
   14.9737     67.87     69.64    -23.29     20.00
   14.9838     68.40     69.78    -22.91     20.00
   14.9940     67.31     69.93    -24.14     20.00
   15.0042     70.02     70.07    -21.58     20.00
   15.0143     68.38     70.22    -23.36     20.00
   15.0245     68.68     70.36    -23.21     20.00
   15.0347     69.46     70.51    -22.57     20.00
   15.0448     69.32     70.66    -22.86     20.00
   15.0550     70.49     70.80    -21.84     20.00
   15.0652     69.62     70.95    -22.85     20.00
   15.0753     69.08     71.10    -23.54     20.00
   15.0855     69.93     71.24    -22.84     20.00
   15.0956     69.51     71.39    -23.40     20.00
   15.1058     70.74     71.54    -22.32     20.00
   15.1160     71.41     71.69    -21.80     20.00
   15.1261     70.65     71.83    -22.71     20.00
   15.1363     69.95     71.98    -23.56     20.00
   15.1465     71.29     72.13    -22.37     20.00
   15.1566     70.91     72.28    -22.90     20.00
   15.1668     71.85     72.43    -22.11     20.00
   15.1770     72.21     72.58    -21.90     20.00
   15.1871     72.49     72.73    -21.77     20.00
   15.1973     72.44     72.88    -21.97     20.00
   15.2075     72.22     73.03    -22.34     20.00
   15.2176     70.81     73.18    -23.90     20.00
   15.2278     70.93     73.34    -23.93     20.00
   15.2380     70.23     73.49    -24.78     20.00
   15.2481     72.13     73.64    -23.03     20.00
   15.2583     73.02     73.79    -22.30     20.00
   15.2684     72.14     73.94    -23.33     20.00
   15.2786     72.86     74.10    -22.76     20.00
   15.2888     73.21     74.25    -22.56     20.00
   15.2989     72.48     74.40    -23.45     20.00
   15.3091     74.84     74.56    -21.24     20.00
   15.3193     73.65     74.71    -22.59     20.00
   15.3294     74.55     74.86    -21.84     20.00
   15.3396     72.80     75.02    -23.74     20.00
   15.3498     75.00     75.17    -21.70     20.00
   15.3599     74.20     75.33    -22.65     20.00
   15.3701     75.74     75.48    -21.27     20.00
   15.3803     74.19     75.64    -22.98     20.00
   15.3904     73.94     75.80    -23.38     20.00
   15.4006     73.98     75.95    -23.50     20.00
   15.4107     76.77     76.11    -20.86     20.00
   15.4209     75.56     76.27    -22.23     20.00
   15.4311     76.06     76.42    -21.89     20.00
   15.4412     77.16     76.58    -20.94     20.00
   15.4514     76.38     76.74    -21.88     20.00
   15.4616     76.46     76.90    -21.96     20.00
   15.4717     77.54     77.05    -21.04     20.00
   15.4819     75.35     77.21    -23.39     20.00
   15.4921     77.49     77.37    -21.41     20.00
   15.5022     76.25     77.53    -22.80     20.00
   15.5124     75.29     77.69    -23.92     20.00
   15.5226     76.41     77.85    -22.96     20.00
   15.5327     77.36     78.01    -22.17     20.00
   15.5429     76.89     78.17    -22.80     20.00
   15.5530     77.91     78.33    -21.94     20.00
   15.5632     78.66     78.49    -21.35     20.00
   15.5734     77.98     78.65    -22.20     20.00
   15.5835     79.32     78.81    -21.02     20.00
   15.5937     78.60     78.97    -21.90     20.00
   15.6039     78.49     79.14    -22.17     20.00
   15.6140     78.76     79.30    -22.06     20.00
   15.6242     79.66     79.46    -21.32     20.00
   15.6344     80.02     79.62    -21.13     20.00
   15.6445     79.13     79.79    -22.18     20.00
   15.6547     81.12     79.95    -20.35     20.00
   15.6649     79.31     80.11    -22.33     20.00
   15.6750     81.60     80.28    -20.20     20.00
   15.6852     79.79     80.44    -22.17     20.00
   15.6954     80.69     80.61    -21.44     20.00
   15.7055     79.40     80.77    -22.89     20.00
   15.7157     80.91     80.93    -21.55     20.00
   15.7258     81.10     81.10    -21.52     20.00
   15.7360     81.35     81.26    -21.44     20.00
   15.7462     80.69     81.43    -22.26     20.00
   15.7563     80.60     81.60    -22.52     20.00
   15.7665     81.33     81.76    -21.96     20.00
   15.7767     81.91     81.93    -21.54     20.00
   15.7868     82.52     82.10    -21.10     20.00
   15.7970     80.06     82.26    -23.73     20.00
   15.8072     83.45     82.43    -20.51     20.00
   15.8173     82.83     82.60    -21.29     20.00
   15.8275     82.13     82.77    -22.16     20.00
   15.8377     82.65     82.93    -21.81     20.00
   15.8478     84.08     83.10    -20.55     20.00
   15.8580     82.75     83.27    -22.05     20.00
   15.8681     83.29     83.44    -21.67     20.00
   15.8783     84.04     83.61    -21.09     20.00
   15.8885     84.90     83.78    -20.40     20.00
   15.8986     83.30     83.95    -22.17     20.00
   15.9088     85.70     84.12    -19.94     20.00
   15.9190     84.37     84.29    -21.44     20.00
   15.9291     85.47     84.46    -20.51     20.00
   15.9393     84.63     84.63    -21.52     20.00
   15.9495     83.76     84.80    -22.57     20.00
   15.9596     85.48     84.97    -21.02     20.00
   15.9698     84.73     85.15    -21.94     20.00
   15.9800     86.31     85.32    -20.53     20.00
   15.9901     85.63     85.49    -21.38     20.00
   16.0003     85.61     85.66    -21.58     20.00
   16.0105     85.05     85.84    -22.31     20.00
   16.0206     86.63     86.01    -20.90     20.00
   16.0308     86.88     86.18    -20.83     20.00
   16.0409     86.70     86.35    -21.18     20.00
   16.0511     87.55     86.53    -20.50     20.00
   16.0613     87.16     86.70    -21.07     20.00
   16.0714     87.20     86.88    -21.20     20.00
   16.0816     87.91     87.05    -20.67     20.00
   16.0918     87.99     87.23    -20.76     20.00
   16.1019     88.59     87.40    -20.34     20.00
   16.1121     88.01     87.58    -21.09     20.00
   16.1223     87.32     87.76    -21.96     20.00
   16.1324     87.84     87.93    -21.61     20.00
   16.1426     90.74     88.11    -18.89     20.00
   16.1528     89.06     88.29    -20.75     20.00
   16.1629     88.33     88.46    -21.66     20.00
   16.1731     89.27     88.64    -20.89     20.00
   16.1832     90.13     88.82    -20.21     20.00
   16.1934     89.90     88.99    -20.62     20.00
   16.2036     89.82     89.17    -20.88     20.00
   16.2137     90.35     89.35    -20.52     20.00
   16.2239     89.53     89.53    -21.52     20.00
   16.2341     90.64     89.71    -20.59     20.00
   16.2442     92.32     89.89    -19.09     20.00
   16.2544     91.09     90.07    -20.50     20.00
   16.2646     92.04     90.25    -19.73     20.00
   16.2747     91.61     90.43    -20.34     20.00
   16.2849     91.49     90.61    -20.64     20.00
   16.2951     92.34     90.79    -19.97     20.00
   16.3052     92.36     90.97    -20.13     20.00
   16.3154     94.01     91.15    -18.67     20.00
   16.3256     92.40     91.34    -20.46     20.00
   16.3357     92.21     91.52    -20.83     20.00
   16.3459     93.63     91.70    -19.59     20.00
   16.3560     93.60     91.88    -19.80     20.00
   16.3662     93.14     92.06    -20.45     20.00
   16.3764     93.15     92.25    -20.62     20.00
   16.3865     95.56     92.43    -18.39     20.00
   16.3967     93.81     92.62    -20.33     20.00
   16.4069     94.54     92.80    -19.78     20.00
   16.4170     94.04     92.98    -20.47     20.00
   16.4272     94.84     93.17    -19.85     20.00
   16.4374     95.36     93.36    -19.52     20.00
   16.4475     96.86     93.54    -18.20     20.00
   16.4577     95.09     93.73    -20.16     20.00
   16.4679     97.13     93.91    -18.31     20.00
   16.4780     97.63     94.10    -17.99     20.00
   16.4882     97.66     94.29    -18.15     20.00
   16.4983     97.26     94.47    -18.74     20.00
   16.5085     98.87     94.66    -17.32     20.00
   16.5187     98.71     94.85    -17.66     20.00
   16.5288     96.30     95.04    -20.26     20.00
   16.5390     99.49     95.23    -17.26     20.00
   16.5492     98.91     95.42    -18.03     20.00
   16.5593     97.68     95.60    -19.45     20.00
   16.5695     98.76     95.80    -18.56     20.00
   16.5797     98.59     95.99    -18.92     20.00
   16.5898     98.60     96.18    -19.10     20.00
   16.6000     99.56     96.37    -18.33     20.00
   16.6102     98.93     96.56    -19.15     20.00
   16.6203    100.78     96.75    -17.49     20.00
   16.6305    102.32     96.94    -16.15     20.00
   16.6407     99.77     97.14    -18.89     20.00
   16.6508    100.84     97.33    -18.01     20.00
   16.6610    102.17     97.52    -16.88     20.00
   16.6711    100.34     97.71    -18.90     20.00
   16.6813    101.35     97.91    -18.08     20.00
   16.6915     99.91     98.11    -19.72     20.00
   16.7016    102.77     98.30    -17.05     20.00
   16.7118    100.81     98.50    -19.21     20.00
   16.7220    102.27     98.69    -17.95     20.00
   16.7321    101.68     98.89    -18.73     20.00
   16.7423    101.01     99.09    -19.60     20.00
   16.7525    103.49     99.28    -17.32     20.00
   16.7626    102.74     99.48    -18.26     20.00
   16.7728    102.02     99.68    -19.18     20.00
   16.7830    102.44     99.88    -18.96     20.00
   16.7931    104.07    100.08    -17.53     20.00
   16.8033    103.62    100.28    -18.18     20.00
   16.8134    104.30    100.48    -17.70     20.00
   16.8236    103.80    100.68    -18.40     20.00
   16.8338    103.13    100.88    -19.28     20.00
   16.8439    104.06    101.08    -18.55     20.00
   16.8541    105.35    101.29    -17.46     20.00
   16.8643    104.66    101.49    -18.35     20.00
   16.8744    105.02    101.69    -18.20     20.00
   16.8846    105.68    101.90    -17.74     20.00
   16.8948    105.47    102.10    -18.16     20.00
   16.9049    106.49    102.31    -17.34     20.00
   16.9151    106.51    102.52    -17.53     20.00
   16.9253    106.95    102.72    -17.30     20.00
   16.9354    107.31    102.93    -17.15     20.00
   16.9456    105.57    103.14    -19.09     20.00
   16.9558    106.84    103.35    -18.03     20.00
   16.9659    107.32    103.56    -17.76     20.00
   16.9761    104.99    103.77    -20.30     20.00
   16.9862    107.32    103.98    -18.19     20.00
   16.9964    107.70    104.19    -18.02     20.00
   17.0066    106.80    104.41    -19.13     20.00
   17.0167    107.05    104.62    -19.09     20.00
   17.0269    108.63    104.84    -17.73     20.00
   17.0371    108.64    105.05    -17.94     20.00
   17.0472    108.23    105.27    -18.56     20.00
   17.0574    109.26    105.49    -17.75     20.00
   17.0676    109.51    105.71    -17.72     20.00
   17.0777    110.52    105.92    -16.93     20.00
   17.0879    111.07    106.15    -16.60     20.00
   17.0981    107.59    106.37    -20.30     20.00
   17.1082    109.54    106.59    -18.57     20.00
   17.1184    111.29    106.81    -17.05     20.00
   17.1285    109.87    107.04    -18.69     20.00
   17.1387    109.88    107.26    -18.91     20.00
   17.1489    110.24    107.49    -18.78     20.00
   17.1590    109.49    107.72    -19.75     20.00
   17.1692    111.58    107.95    -17.89     20.00
   17.1794    112.21    108.18    -17.50     20.00
   17.1895    111.07    108.41    -18.87     20.00
   17.1997    111.61    108.65    -18.56     20.00
   17.2099    112.52    108.88    -17.89     20.00
   17.2200    112.04    109.12    -18.60     20.00
   17.2302    113.04    109.36    -17.84     20.00
   17.2404    111.22    109.60    -19.91     20.00
   17.2505    113.46    109.84    -17.91     20.00
   17.2607    114.51    110.09    -17.10     20.00
   17.2709    112.96    110.34    -18.90     20.00
   17.2810    114.71    110.58    -17.40     20.00
   17.2912    113.52    110.83    -18.84     20.00
   17.3013    115.51    111.09    -17.10     20.00
   17.3115    115.94    111.34    -16.93     20.00
   17.3217    115.32    111.60    -17.80     20.00
   17.3318    114.48    111.86    -18.90     20.00
   17.3420    116.28    112.12    -17.37     20.00
   17.3522    116.07    112.39    -17.84     20.00
   17.3623    115.95    112.66    -18.23     20.00
   17.3725    114.41    112.93    -20.05     20.00
   17.3827    115.73    113.21    -19.00     20.00
   17.3928    118.49    113.49    -16.52     20.00
   17.4030    116.29    113.77    -19.00     20.00
   17.4132    117.39    114.06    -18.19     20.00
   17.4233    117.84    114.35    -18.03     20.00
   17.4335    117.18    114.64    -18.99     20.00
   17.4436    117.04    114.94    -19.43     20.00
   17.4538    118.87    115.25    -17.90     20.00
   17.4640    119.55    115.56    -17.53     20.00
   17.4741    119.80    115.87    -17.59     20.00
   17.4843    120.80    116.19    -16.92     20.00
   17.4945    120.73    116.52    -17.31     20.00
   17.5046    119.96    116.85    -18.42     20.00
   17.5148    120.59    117.19    -18.13     20.00
   17.5250    120.69    117.54    -18.37     20.00
   17.5351    121.71    117.89    -17.71     20.00
   17.5453    122.75    118.25    -17.03     20.00
   17.5555    122.25    118.63    -17.90     20.00
   17.5656    121.80    119.00    -18.73     20.00
   17.5758    124.26    119.39    -16.65     20.00
   17.5859    123.33    119.78    -17.98     20.00
   17.5961    124.57    120.19    -17.15     20.00
   17.6063    125.90    120.61    -16.24     20.00
   17.6164    125.13    121.04    -17.43     20.00
   17.6266    126.99    121.48    -16.01     20.00
   17.6368    127.15    121.93    -16.31     20.00
   17.6469    126.80    122.39    -17.12     20.00
   17.6571    125.79    122.87    -18.61     20.00
   17.6673    127.13    123.36    -17.76     20.00
   17.6774    127.32    123.87    -18.07     20.00
   17.6876    128.01    124.39    -17.90     20.00
   17.6978    128.41    124.93    -18.04     20.00
   17.7079    127.79    125.48    -19.21     20.00
   17.7181    129.07    126.05    -18.51     20.00
   17.7283    130.69    126.64    -17.48     20.00
   17.7384    130.50    127.25    -18.27     20.00
   17.7486    130.47    127.88    -18.93     20.00
   17.7587    131.91    128.52    -18.13     20.00
   17.7689    130.20    129.19    -20.51     20.00
   17.7791    132.80    129.88    -18.60     20.00
   17.7892    134.73    130.59    -17.38     20.00
   17.7994    134.05    131.33    -18.80     20.00
   17.8096    134.26    132.09    -19.35     20.00
   17.8197    135.80    132.87    -18.59     20.00
   17.8299    137.04    133.68    -18.17     20.00
   17.8401    136.63    134.52    -19.42     20.00
   17.8502    138.49    135.38    -18.42     20.00
   17.8604    140.15    136.28    -17.65     20.00
   17.8706    139.45    137.20    -19.28     20.00
   17.8807    139.57    138.15    -20.10     20.00
   17.8909    141.12    139.13    -19.54     20.00
   17.9010    140.90    140.14    -20.76     20.00
   17.9112    142.70    141.19    -20.01     20.00
   17.9214    142.31    142.27    -21.48     20.00
   17.9315    143.59    143.37    -21.31     20.00
   17.9417    146.87    144.52    -19.18     20.00
   17.9519    146.18    145.70    -21.05     20.00
   17.9620    148.29    146.91    -20.14     20.00
   17.9722    150.65    148.16    -19.04     20.00
   17.9824    148.48    149.45    -22.50     20.00
   17.9925    151.31    150.76    -20.98     20.00
   18.0027    150.66    152.13    -22.99     20.00
   18.0129    153.52    153.52    -21.53     20.00
   18.0230    154.99    154.95    -21.48     20.00
   18.0332    155.45    156.42    -22.49     20.00
   18.0434    157.86    157.93    -21.59     20.00
   18.0535    157.42    159.46    -23.57     20.00
   18.0637    160.96    161.05    -21.61     20.00
   18.0738    160.65    162.65    -23.53     20.00
   18.0840    163.32    164.31    -22.51     20.00
   18.0942    167.32    166.00    -20.21     20.00
   18.1043    163.39    167.72    -25.85     20.00
   18.1145    166.41    169.48    -24.60     20.00
   18.1247    169.01    171.28    -23.80     20.00
   18.1348    171.19    173.10    -23.43     20.00
   18.1450    171.49    174.96    -25.00     20.00
   18.1552    174.68    176.86    -23.70     20.00
   18.1653    176.54    178.77    -23.75     20.00
   18.1755    174.65    180.72    -27.60     20.00
   18.1857    179.72    182.70    -24.51     20.00
   18.1958    182.57    184.69    -23.65     20.00
   18.2060    182.35    186.72    -25.90     20.00
   18.2161    186.34    188.76    -23.94     20.00
   18.2263    186.77    190.83    -25.58     20.00
   18.2365    185.72    192.91    -28.72     20.00
   18.2466    192.68    195.00    -23.84     20.00
   18.2568    194.20    197.11    -24.43     20.00
   18.2670    193.76    199.23    -26.99     20.00
   18.2771    197.30    201.33    -25.55     20.00
   18.2873    201.71    203.45    -23.27     20.00
   18.2975    202.10    205.57    -25.00     20.00
   18.3076    204.29    207.66    -24.90     20.00
   18.3178    209.32    209.76    -21.97     20.00
   18.3280    205.65    211.84    -27.72     20.00
   18.3381    211.84    213.88    -23.57     20.00
   18.3483    214.70    215.92    -22.74     20.00
   18.3585    213.51    217.91    -25.93     20.00
   18.3686    219.82    219.85    -21.56     20.00
   18.3788    219.47    221.77    -23.82     20.00
   18.3889    221.38    223.61    -23.76     20.00
   18.3991    225.99    225.42    -20.95     20.00
   18.4093    225.86    227.16    -22.83     20.00
   18.4194    227.24    228.82    -23.10     20.00
   18.4296    231.53    230.41    -20.40     20.00
   18.4398    232.85    231.92    -20.59     20.00
   18.4499    230.35    233.33    -24.50     20.00
   18.4601    235.86    234.65    -20.31     20.00
   18.4703    235.82    235.87    -21.58     20.00
   18.4804    235.69    236.98    -22.81     20.00
   18.4906    237.76    237.98    -21.74     20.00
   18.5008    241.31    238.86    -19.07     20.00
   18.5109    239.36    239.61    -21.77     20.00
   18.5211    244.74    240.24    -17.03     20.00
   18.5312    245.26    240.74    -17.01     20.00
   18.5414    239.86    241.12    -22.78     20.00
   18.5516    244.51    241.36    -18.37     20.00
   18.5617    244.13    241.46    -18.86     20.00
   18.5719    241.97    241.43    -20.99     20.00
   18.5821    242.77    241.27    -20.03     20.00
   18.5922    244.23    240.98    -18.28     20.00
   18.6024    244.35    240.56    -17.73     20.00
   18.6126    244.55    240.01    -16.98     20.00
   18.6227    242.10    239.34    -18.77     20.00
   18.6329    242.98    238.55    -17.10     20.00
   18.6431    240.43    237.65    -18.74     20.00
   18.6532    241.59    236.64    -16.58     20.00
   18.6634    238.99    235.52    -18.06     20.00
   18.6736    236.15    234.31    -19.68     20.00
   18.6837    236.82    233.01    -17.72     20.00
   18.6939    233.01    231.62    -20.14     20.00
   18.7040    230.93    230.17    -20.76     20.00
   18.7142    229.57    228.63    -20.58     20.00
   18.7244    227.12    227.02    -21.42     20.00
   18.7345    227.74    225.37    -19.16     20.00
   18.7447    225.91    223.65    -19.27     20.00
   18.7549    222.38    221.89    -21.03     20.00
   18.7650    220.00    220.10    -21.63     20.00
   18.7752    220.54    218.27    -19.25     20.00
   18.7854    217.20    216.40    -20.72     20.00
   18.7955    215.97    214.53    -20.08     20.00
   18.8057    215.27    212.62    -18.87     20.00
   18.8159    207.05    210.70    -25.17     20.00
   18.8260    208.42    208.79    -21.89     20.00
   18.8362    206.82    206.85    -21.56     20.00
   18.8463    202.90    204.93    -23.56     20.00
   18.8565    202.33    203.00    -22.20     20.00
   18.8667    203.54    201.08    -19.06     20.00
   18.8768    198.07    199.18    -22.63     20.00
   18.8870    195.80    197.28    -23.00     20.00
   18.8972    195.40    195.39    -21.51     20.00
   18.9073    190.92    193.54    -24.14     20.00
   18.9175    190.80    191.69    -22.41     20.00
   18.9277    189.12    189.86    -22.27     20.00
   18.9378    185.76    188.08    -23.84     20.00
   18.9480    183.56    186.31    -24.27     20.00
   18.9582    182.95    184.56    -23.13     20.00
   18.9683    181.79    182.86    -22.59     20.00
   18.9785    179.35    181.17    -23.35     20.00
   18.9887    176.82    179.52    -24.23     20.00
   18.9988    176.88    177.92    -22.56     20.00
   19.0090    174.65    176.33    -23.20     20.00
   19.0191    173.60    174.79    -22.72     20.00
   19.0293    168.96    173.28    -25.84     20.00
   19.0395    170.29    171.80    -23.03     20.00
   19.0496    169.20    170.37    -22.69     20.00
   19.0598    165.35    168.96    -25.13     20.00
   19.0700    167.06    167.59    -22.05     20.00
   19.0801    164.91    166.27    -22.88     20.00
   19.0903    164.46    164.97    -22.03     20.00
   19.1005    160.92    163.71    -24.31     20.00
   19.1106    162.68    162.50    -21.34     20.00
   19.1208    160.41    161.31    -22.43     20.00
   19.1310    159.59    160.16    -22.09     20.00
   19.1411    157.09    159.06    -23.49     20.00
   19.1513    157.15    157.98    -22.35     20.00
   19.1614    155.16    156.95    -23.31     20.00
   19.1716    155.10    155.94    -22.36     20.00
   19.1818    153.74    154.96    -22.75     20.00
   19.1919    154.73    154.03    -20.82     20.00
   19.2021    153.79    153.12    -20.86     20.00
   19.2123    152.37    152.25    -21.40     20.00
   19.2224    154.51    151.41    -18.42     20.00
   19.2326    150.63    150.60    -21.49     20.00
   19.2428    148.77    149.81    -22.57     20.00
   19.2529    148.43    149.07    -22.16     20.00
   19.2631    148.90    148.34    -20.97     20.00
   19.2733    146.99    147.65    -22.18     20.00
   19.2834    145.96    146.99    -22.55     20.00
   19.2936    145.80    146.34    -22.07     20.00
   19.3038    144.57    145.73    -22.68     20.00
   19.3139    144.30    145.14    -22.37     20.00
   19.3241    145.28    144.57    -20.82     20.00
   19.3342    142.83    144.03    -22.73     20.00
   19.3444    143.23    143.51    -21.81     20.00
   19.3546    142.71    143.01    -21.82     20.00
   19.3647    140.82    142.54    -23.24     20.00
   19.3749    141.70    142.08    -21.90     20.00
   19.3851    140.31    141.64    -22.85     20.00
   19.3952    141.57    141.22    -21.17     20.00
   19.4054    141.60    140.81    -20.74     20.00
   19.4156    139.43    140.43    -22.52     20.00
   19.4257    139.10    140.06    -22.48     20.00
   19.4359    139.19    139.70    -22.04     20.00
   19.4461    138.05    139.36    -22.84     20.00
   19.4562    137.27    139.04    -23.30     20.00
   19.4664    138.49    138.73    -21.76     20.00
   19.4765    137.93    138.43    -22.03     20.00
   19.4867    135.45    138.15    -24.22     20.00
   19.4969    137.87    137.87    -21.53     20.00
   19.5070    135.66    137.61    -23.48     20.00
   19.5172    136.47    137.36    -22.42     20.00
   19.5274    135.28    137.12    -23.36     20.00
   19.5375    133.18    136.89    -25.23     20.00
   19.5477    133.87    136.67    -24.32     20.00
   19.5579    134.48    136.45    -23.50     20.00
   19.5680    135.08    136.25    -22.69     20.00
   19.5782    134.73    136.05    -22.85     20.00
   19.5884    133.75    135.86    -23.64     20.00
   19.5985    132.74    135.68    -24.46     20.00
   19.6087    132.81    135.50    -24.22     20.00
   19.6188    134.72    135.34    -22.14     20.00
   19.6290    132.11    135.17    -24.59     20.00
   19.6392    133.88    135.02    -22.66     20.00
   19.6493    132.85    134.87    -23.54     20.00
   19.6595    133.48    134.72    -22.77     20.00
   19.6697    133.13    134.58    -22.97     20.00
   19.6798    133.67    134.45    -22.30     20.00
   19.6900    133.35    134.32    -22.49     20.00
   19.7002    133.10    134.19    -22.61     20.00
   19.7103    131.15    134.07    -24.44     20.00
   19.7205    133.32    133.95    -22.16     20.00
   19.7307    132.59    133.84    -22.77     20.00
   19.7408    133.14    133.73    -22.11     20.00
   19.7510    132.06    133.62    -23.09     20.00
   19.7612    131.13    133.52    -23.92     20.00
   19.7713    132.28    133.43    -22.67     20.00
   19.7815    132.77    133.33    -22.09     20.00
   19.7916    131.97    133.24    -22.80     20.00
   19.8018    131.23    133.16    -23.45     20.00
   19.8120    131.41    133.07    -23.19     20.00
   19.8221    131.74    133.00    -22.78     20.00
   19.8323    132.25    132.92    -22.19     20.00
   19.8425    132.40    132.85    -21.97     20.00
   19.8526    133.07    132.78    -21.24     20.00
   19.8628    132.43    132.72    -21.81     20.00
   19.8730    131.11    132.66    -23.08     20.00
   19.8831    130.52    132.61    -23.61     20.00
   19.8933    132.28    132.56    -21.80     20.00
   19.9035    132.24    132.51    -21.80     20.00
   19.9136    130.19    132.47    -23.81     20.00
   19.9238    133.05    132.44    -20.91     20.00
   19.9339    132.02    132.41    -21.91     20.00
   19.9441    130.50    132.39    -23.41     20.00
   19.9543    132.29    132.37    -21.60     20.00
   19.9644    133.26    132.36    -20.62     20.00
   19.9746    132.20    132.35    -21.68     20.00
   19.9848    134.38    132.35    -19.50     20.00
   19.9949    132.99    132.36    -20.90     20.00
   20.0051    132.86    132.38    -21.04     20.00
   20.0153    133.40    132.40    -20.53     20.00
   20.0254    134.35    132.43    -19.61     20.00
   20.0356    132.70    132.47    -21.30     20.00
   20.0458    132.33    132.52    -21.72     20.00
   20.0559    134.04    132.58    -20.06     20.00
   20.0661    133.23    132.65    -20.94     20.00
   20.0763    135.90    132.72    -18.35     20.00
   20.0864    135.24    132.81    -19.09     20.00
   20.0966    133.65    132.90    -20.78     20.00
   20.1067    133.27    133.01    -21.26     20.00
   20.1169    134.35    133.12    -20.30     20.00
   20.1271    133.44    133.25    -21.34     20.00
   20.1372    136.15    133.39    -18.76     20.00
   20.1474    134.34    133.54    -20.72     20.00
   20.1576    135.37    133.70    -19.85     20.00
   20.1677    137.04    133.87    -18.35     20.00
   20.1779    135.29    134.05    -20.28     20.00
   20.1881    134.32    134.24    -21.44     20.00
   20.1982    135.51    134.44    -20.45     20.00
   20.2084    135.38    134.65    -20.80     20.00
   20.2186    135.54    134.87    -20.86     20.00
   20.2287    136.29    135.10    -20.34     20.00
   20.2389    136.62    135.34    -20.25     20.00
   20.2490    136.61    135.59    -20.50     20.00
   20.2592    136.84    135.85    -20.53     20.00
   20.2694    137.20    136.11    -20.43     20.00
   20.2795    136.61    136.37    -21.29     20.00
   20.2897    137.30    136.65    -20.87     20.00
   20.2999    137.77    136.92    -20.68     20.00
   20.3100    135.60    137.20    -23.12     20.00
   20.3202    138.43    137.48    -20.57     20.00
   20.3304    137.94    137.76    -21.34     20.00
   20.3405    137.57    138.03    -21.98     20.00
   20.3507    139.55    138.30    -20.27     20.00
   20.3609    137.95    138.56    -22.13     20.00
   20.3710    138.11    138.81    -22.22     20.00
   20.3812    137.12    139.04    -23.45     20.00
   20.3914    140.06    139.27    -20.73     20.00
   20.4015    137.90    139.47    -23.09     20.00
   20.4117    139.63    139.65    -21.55     20.00
   20.4218    140.35    139.81    -20.99     20.00
   20.4320    140.07    139.94    -21.40     20.00
   20.4422    140.00    140.05    -21.57     20.00
   20.4523    139.21    140.12    -22.43     20.00
   20.4625    138.75    140.16    -22.93     20.00
   20.4727    137.57    140.16    -24.12     20.00
   20.4828    138.66    140.13    -22.99     20.00
   20.4930    138.98    140.06    -22.60     20.00
   20.5032    138.98    139.95    -22.49     20.00
   20.5133    139.73    139.80    -21.60     20.00
   20.5235    138.53    139.62    -22.62     20.00
   20.5337    138.89    139.40    -22.04     20.00
   20.5438    138.80    139.15    -21.88     20.00
   20.5540    136.76    138.87    -23.63     20.00
   20.5641    137.16    138.56    -22.92     20.00
   20.5743    140.04    138.22    -19.70     20.00
   20.5845    136.78    137.85    -22.60     20.00
   20.5946    139.46    137.47    -19.53     20.00
   20.6048    137.35    137.06    -21.24     20.00
   20.6150    137.64    136.64    -20.53     20.00
   20.6251    138.19    136.21    -19.55     20.00
   20.6353    136.06    135.77    -21.23     20.00
   20.6455    135.25    135.31    -21.59     20.00
   20.6556    136.24    134.86    -20.14     20.00
   20.6658    135.36    134.40    -20.56     20.00
   20.6760    135.13    133.93    -20.33     20.00
   20.6861    134.60    133.47    -20.40     20.00
   20.6963    133.80    133.01    -20.74     20.00
   20.7065    133.96    132.55    -20.12     20.00
   20.7166    134.49    132.11    -19.14     20.00
   20.7268    133.73    131.66    -19.45     20.00
   20.7369    131.49    131.22    -21.25     20.00
   20.7471    135.49    130.79    -16.82     20.00
   20.7573    132.30    130.36    -19.59     20.00
   20.7674    129.80    129.95    -21.67     20.00
   20.7776    131.84    129.54    -19.23     20.00
   20.7878    132.06    129.15    -18.61     20.00
   20.7979    130.07    128.76    -20.22     20.00
   20.8081    130.34    128.39    -19.57     20.00
   20.8183    131.43    128.02    -18.12     20.00
   20.8284    127.92    127.68    -21.28     20.00
   20.8386    127.66    127.33    -21.20     20.00
   20.8488    126.99    127.00    -21.54     20.00
   20.8589    127.93    126.69    -20.28     20.00
   20.8691    126.48    126.38    -21.42     20.00
   20.8792    127.94    126.08    -19.67     20.00
   20.8894    127.29    125.80    -20.03     20.00
   20.8996    126.12    125.52    -20.93     20.00
   20.9097    125.03    125.26    -21.76     20.00
   20.9199    124.62    125.01    -21.91     20.00
   20.9301    124.81    124.76    -21.48     20.00
   20.9402    124.54    124.53    -21.52     20.00
   20.9504    123.13    124.31    -22.70     20.00
   20.9606    125.54    124.09    -20.08     20.00
   20.9707    121.86    123.89    -23.55     20.00
   20.9809    121.27    123.69    -23.95     20.00
   20.9911    122.21    123.50    -22.82     20.00
   21.0012    123.35    123.33    -21.50     20.00
   21.0114    121.37    123.15    -23.31     20.00
   21.0216    120.62    122.99    -23.89     20.00
   21.0317    122.61    122.84    -21.75     20.00
   21.0419    121.58    122.69    -22.63     20.00
   21.0520    121.13    122.54    -22.94     20.00
   21.0622    120.80    122.41    -23.13     20.00
   21.0724    118.52    122.28    -25.28     20.00
   21.0825    119.61    122.16    -24.07     20.00
   21.0927    119.59    122.04    -23.98     20.00
   21.1029    118.62    121.93    -24.84     20.00
   21.1130    118.64    121.83    -24.71     20.00
   21.1232    119.15    121.73    -24.10     20.00
   21.1334    118.27    121.63    -24.89     20.00
   21.1435    116.54    121.55    -26.53     20.00
   21.1537    118.30    121.46    -24.69     20.00
   21.1639    116.60    121.39    -26.31     20.00
   21.1740    118.36    121.31    -24.48     20.00
   21.1842    118.49    121.25    -24.28     20.00
   21.1943    116.17    121.19    -26.54     20.00
   21.2045    117.06    121.13    -25.59     20.00
   21.2147    118.21    121.08    -24.39     20.00
   21.2248    115.95    121.03    -26.60     20.00
   21.2350    115.77    120.99    -26.74     20.00
   21.2452    116.12    120.95    -26.36     20.00
   21.2553    117.01    120.92    -25.44     20.00
   21.2655    115.74    120.90    -26.68     20.00
   21.2757    115.61    120.88    -26.79     20.00
   21.2858    116.49    120.86    -25.89     20.00
   21.2960    115.14    120.85    -27.23     20.00
   21.3062    116.14    120.85    -26.23     20.00
   21.3163    114.69    120.85    -27.68     20.00
   21.3265    118.04    120.86    -24.34     20.00
   21.3366    116.72    120.87    -25.67     20.00
   21.3468    115.63    120.89    -26.78     20.00
   21.3570    116.09    120.91    -26.35     20.00
   21.3671    116.40    120.95    -26.07     20.00
   21.3773    113.80    120.98    -28.71     20.00
   21.3875    115.91    121.03    -26.64     20.00
   21.3976    115.85    121.08    -26.75     20.00
   21.4078    116.42    121.14    -26.24     20.00
   21.4180    118.35    121.20    -24.38     20.00
   21.4281    117.98    121.28    -24.82     20.00
   21.4383    115.69    121.36    -27.19     20.00
   21.4485    116.65    121.44    -26.32     20.00
   21.4586    117.29    121.54    -25.77     20.00
   21.4688    114.51    121.64    -28.65     20.00
   21.4790    118.23    121.75    -25.04     20.00
   21.4891    118.43    121.87    -24.96     20.00
   21.4993    117.09    122.00    -26.43     20.00
   21.5094    117.18    122.13    -26.47     20.00
   21.5196    117.05    122.27    -26.75     20.00
   21.5298    117.32    122.43    -26.63     20.00
   21.5399    117.65    122.59    -26.46     20.00
   21.5501    118.16    122.76    -26.12     20.00
   21.5603    118.43    122.93    -26.03     20.00
   21.5704    119.09    123.12    -25.56     20.00
   21.5806    120.92    123.32    -23.92     20.00
   21.5908    119.47    123.53    -25.58     20.00
   21.6009    118.99    123.74    -26.28     20.00
   21.6111    119.99    123.97    -25.50     20.00
   21.6213    120.30    124.20    -25.43     20.00
   21.6314    120.77    124.45    -25.20     20.00
   21.6416    122.54    124.70    -23.69     20.00
   21.6517    121.32    124.97    -25.17     20.00
   21.6619    124.08    125.24    -22.69     20.00
   21.6721    122.99    125.53    -24.06     20.00
   21.6822    121.91    125.82    -25.44     20.00
   21.6924    124.24    126.13    -23.41     20.00
   21.7026    125.27    126.45    -22.70     20.00
   21.7127    124.10    126.77    -24.20     20.00
   21.7229    126.90    127.11    -21.73     20.00
   21.7331    127.36    127.46    -21.62     20.00
   21.7432    127.26    127.81    -22.08     20.00
   21.7534    128.10    128.18    -21.61     20.00
   21.7636    128.77    128.56    -21.31     20.00
   21.7737    128.01    128.95    -22.46     20.00
   21.7839    130.81    129.35    -20.06     20.00
   21.7941    132.62    129.75    -18.66     20.00
   21.8042    129.85    130.17    -21.84     20.00
   21.8144    133.84    130.60    -18.28     20.00
   21.8245    133.70    131.03    -18.86     20.00
   21.8347    132.48    131.48    -20.53     20.00
   21.8449    135.06    131.94    -18.40     20.00
   21.8550    134.38    132.40    -19.55     20.00
   21.8652    134.71    132.88    -19.69     20.00
   21.8754    137.60    133.36    -17.29     20.00
   21.8855    139.45    133.85    -15.92     20.00
   21.8957    135.67    134.35    -20.21     20.00
   21.9059    140.41    134.86    -15.98     20.00
   21.9160    140.34    135.37    -16.56     20.00
   21.9262    139.82    135.90    -17.60     20.00
   21.9364    140.73    136.43    -17.22     20.00
   21.9465    141.87    136.96    -16.61     20.00
   21.9567    141.12    137.50    -17.91     20.00
   21.9668    142.39    138.04    -17.18     20.00
   21.9770    143.31    138.60    -16.81     20.00
   21.9872    142.59    139.16    -18.09     20.00
   21.9973    145.03    139.71    -16.21     20.00
   22.0075    144.21    140.28    -17.59     20.00
   22.0177    144.15    140.84    -18.22     20.00
   22.0278    144.63    141.41    -18.30     20.00
   22.0380    145.37    141.98    -18.13     20.00
   22.0482    145.32    142.55    -18.75     20.00
   22.0583    147.49    143.11    -17.15     20.00
   22.0685    148.85    143.68    -16.36     20.00
   22.0787    147.08    144.25    -18.69     20.00
   22.0888    147.87    144.81    -18.46     20.00
   22.0990    150.45    145.37    -16.44     20.00
   22.1092    146.52    145.92    -20.92     20.00
   22.1193    149.38    146.46    -18.61     20.00
   22.1295    151.15    147.01    -17.38     20.00
   22.1396    147.91    147.53    -21.15     20.00
   22.1498    151.57    148.06    -18.01     20.00
   22.1600    151.17    148.57    -18.92     20.00
   22.1701    151.34    149.07    -19.25     20.00
   22.1803    152.12    149.55    -18.96     20.00
   22.1905    151.27    150.03    -20.28     20.00
   22.2006    151.62    150.48    -20.39     20.00
   22.2108    152.14    150.92    -20.31     20.00
   22.2210    154.55    151.34    -18.32     20.00
   22.2311    151.01    151.74    -22.26     20.00
   22.2413    152.84    152.12    -20.81     20.00
   22.2515    154.84    152.48    -19.17     20.00
   22.2616    153.12    152.81    -21.22     20.00
   22.2718    153.98    153.12    -20.67     20.00
   22.2819    154.10    153.41    -20.83     20.00
   22.2921    153.01    153.66    -22.18     20.00
   22.3023    154.15    153.89    -21.26     20.00
   22.3124    155.48    154.08    -20.13     20.00
   22.3226    153.31    154.25    -22.46     20.00
   22.3328    155.47    154.38    -20.44     20.00
   22.3429    154.13    154.48    -21.88     20.00
   22.3531    153.11    154.55    -22.96     20.00
   22.3633    153.49    154.58    -22.62     20.00
   22.3734    154.95    154.58    -21.15     20.00
   22.3836    153.40    154.54    -22.67     20.00
   22.3938    151.55    154.47    -24.44     20.00
   22.4039    152.88    154.36    -23.00     20.00
   22.4141    152.52    154.21    -23.21     20.00
   22.4243    151.88    154.03    -23.67     20.00
   22.4344    152.29    153.81    -23.04     20.00
   22.4446    152.88    153.55    -22.19     20.00
   22.4547    152.12    153.26    -22.66     20.00
   22.4649    151.45    152.93    -23.01     20.00
   22.4751    146.84    152.57    -27.25     20.00
   22.4852    148.42    152.17    -25.28     20.00
   22.4954    148.38    151.74    -24.88     20.00
   22.5056    148.18    151.27    -24.62     20.00
   22.5157    149.54    150.78    -22.76     20.00
   22.5259    146.76    150.25    -25.02     20.00
   22.5361    146.91    149.69    -24.31     20.00
   22.5462    146.32    149.11    -24.31     20.00
   22.5564    146.09    148.50    -23.93     20.00
   22.5666    144.42    147.85    -24.96     20.00
   22.5767    146.73    147.19    -21.99     20.00
   22.5869    144.43    146.50    -23.60     20.00
   22.5970    143.90    145.80    -23.42     20.00
   22.6072    142.70    145.06    -23.89     20.00
   22.6174    144.02    144.31    -21.81     20.00
   22.6275    141.76    143.54    -23.31     20.00
   22.6377    141.67    142.75    -22.61     20.00
   22.6479    140.05    141.95    -23.42     20.00
   22.6580    137.62    141.13    -25.04     20.00
   22.6682    139.02    140.30    -22.80     20.00
   22.6784    137.69    139.46    -23.29     20.00
   22.6885    136.50    138.61    -23.63     20.00
   22.6987    137.24    137.74    -22.03     20.00
   22.7089    136.46    136.87    -21.93     20.00
   22.7190    134.13    136.00    -23.39     20.00
   22.7292    134.68    135.11    -21.95     20.00
   22.7394    132.23    134.22    -23.51     20.00
   22.7495    131.53    133.33    -23.32     20.00
   22.7597    132.90    132.43    -21.06     20.00
   22.7698    130.42    131.54    -22.64     20.00
   22.7800    129.63    130.64    -22.53     20.00
   22.7902    129.06    129.74    -22.20     20.00
   22.8003    128.43    128.84    -21.94     20.00
   22.8105    125.51    127.94    -23.96     20.00
   22.8207    127.18    127.04    -21.39     20.00
   22.8308    124.49    126.16    -23.19     20.00
   22.8410    124.40    125.26    -22.39     20.00
   22.8512    123.00    124.37    -22.90     20.00
   22.8613    123.63    123.50    -21.39     20.00
   22.8715    121.88    122.62    -22.26     20.00
   22.8817    123.30    121.75    -19.97     20.00
   22.8918    122.87    120.89    -19.54     20.00
   22.9020    119.91    120.03    -21.64     20.00
   22.9121    121.46    119.18    -19.24     20.00
   22.9223    119.88    118.33    -19.98     20.00
   22.9325    118.51    117.50    -20.51     20.00
   22.9426    117.15    116.67    -21.05     20.00
   22.9528    117.05    115.85    -20.32     20.00
   22.9630    115.40    115.04    -21.16     20.00
   22.9731    117.09    114.24    -18.67     20.00
   22.9833    115.97    113.44    -19.00     20.00
   22.9935    113.97    112.66    -20.21     20.00
   23.0036    113.68    111.89    -19.73     20.00
   23.0138    112.96    111.12    -19.68     20.00
   23.0240    109.99    110.36    -21.90     20.00
   23.0341    111.12    109.62    -20.03     20.00
   23.0443    111.87    108.89    -18.54     20.00
   23.0545    108.41    108.16    -21.27     20.00
   23.0646    110.57    107.45    -18.40     20.00
   23.0748    109.19    106.74    -19.08     20.00
   23.0849    108.20    106.05    -19.38     20.00
   23.0951    108.02    105.37    -18.87     20.00
   23.1053    106.34    104.69    -19.88     20.00
   23.1154    105.48    104.04    -20.08     20.00
   23.1256    106.57    103.38    -18.34     20.00
   23.1358    105.05    102.74    -19.21     20.00
   23.1459    103.29    102.11    -20.35     20.00
   23.1561    105.32    101.49    -17.70     20.00
   23.1663    103.60    100.88    -18.81     20.00
   23.1764    102.49    100.29    -19.32     20.00
   23.1866    102.52     99.70    -18.70     20.00
   23.1968    101.52     99.12    -19.12     20.00
   23.2069    101.98     98.55    -18.10     20.00
   23.2171    100.99     97.99    -18.53     20.00
   23.2272    100.09     97.45    -18.88     20.00
   23.2374     98.17     96.91    -20.26     20.00
   23.2476     97.95     96.38    -19.95     20.00
   23.2577     98.48     95.86    -18.91     20.00
   23.2679     97.34     95.35    -19.53     20.00
   23.2781     97.43     94.85    -18.94     20.00
   23.2882     95.66     94.36    -20.23     20.00
   23.2984     95.48     93.88    -19.92     20.00
   23.3086     95.46     93.40    -19.47     20.00
   23.3187     94.82     92.94    -19.65     20.00
   23.3289     96.45     92.49    -17.56     20.00
   23.3391     94.92     92.04    -18.64     20.00
   23.3492     94.30     91.60    -18.83     20.00
   23.3594     93.77     91.17    -18.93     20.00
   23.3695     92.82     90.75    -19.46     20.00
   23.3797     92.17     90.34    -19.69     20.00
   23.3899     91.46     89.93    -19.99     20.00
   23.4000     90.74     89.53    -20.32     20.00
   23.4102     90.45     89.14    -20.22     20.00
   23.4204     89.81     88.76    -20.47     20.00
   23.4305     89.24     88.38    -20.67     20.00
   23.4407     89.95     88.01    -19.59     20.00
   23.4509     88.59     87.65    -20.58     20.00
   23.4610     88.59     87.29    -20.23     20.00
   23.4712     87.93     86.94    -20.54     20.00
   23.4814     87.93     86.60    -20.19     20.00
   23.4915     86.99     86.26    -20.80     20.00
   23.5017     88.13     85.93    -19.32     20.00
   23.5119     86.16     85.60    -20.97     20.00
   23.5220     85.77     85.28    -21.04     20.00
   23.5322     86.32     84.97    -20.17     20.00
   23.5423     84.73     84.66    -21.45     20.00
   23.5525     85.20     84.35    -20.68     20.00
   23.5627     84.72     84.05    -20.86     20.00
   23.5728     84.71     83.76    -20.58     20.00
   23.5830     84.23     83.47    -20.76     20.00
   23.5932     83.87     83.18    -20.84     20.00
   23.6033     81.51     82.91    -22.92     20.00
   23.6135     83.41     82.63    -20.74     20.00
   23.6237     83.61     82.35    -20.27     20.00
   23.6338     82.74     82.09    -20.87     20.00
   23.6440     80.38     81.82    -22.97     20.00
   23.6542     80.63     81.56    -22.46     20.00
   23.6643     80.79     81.31    -22.04     20.00
   23.6745     81.96     81.05    -20.62     20.00
   23.6846     81.48     80.80    -20.85     20.00
   23.6948     79.16     80.56    -22.92     20.00
   23.7050     79.94     80.31    -21.90     20.00
   23.7151     78.71     80.08    -22.89     20.00
   23.7253     79.06     79.84    -22.30     20.00
   23.7355     79.98     79.60    -21.15     20.00
   23.7456     78.35     79.37    -22.55     20.00
   23.7558     78.00     79.14    -22.67     20.00
   23.7660     78.48     78.92    -21.96     20.00
   23.7761     78.37     78.70    -21.85     20.00
   23.7863     77.49     78.48    -22.51     20.00
   23.7965     76.44     78.26    -23.34     20.00
   23.8066     77.59     78.04    -21.98     20.00
   23.8168     76.94     77.83    -22.41     20.00
   23.8270     75.35     77.62    -23.79     20.00
   23.8371     77.71     77.41    -21.22     20.00
   23.8473     74.69     77.20    -24.03     20.00
   23.8574     75.60     77.00    -22.92     20.00
   23.8676     74.41     76.79    -23.91     20.00
   23.8778     74.09     76.59    -24.02     20.00
   23.8879     76.05     76.39    -21.86     20.00
   23.8981     74.18     76.19    -23.54     20.00
   23.9083     73.37     76.00    -24.15     20.00
   23.9184     74.34     75.80    -22.99     20.00
   23.9286     73.23     75.61    -23.90     20.00
   23.9388     74.23     75.42    -22.71     20.00
   23.9489     72.62     75.23    -24.13     20.00
   23.9591     72.15     75.04    -24.41     20.00
   23.9693     73.53     74.85    -22.84     20.00
   23.9794     72.88     74.67    -23.31     20.00
   23.9896     73.36     74.48    -22.64     20.00
   23.9997     72.46     74.30    -23.36     20.00
   24.0099     71.87     74.12    -23.77     20.00
   24.0201     72.28     73.93    -23.18     20.00
   24.0302     71.65     73.76    -23.63     20.00
   24.0404     70.70     73.58    -24.40     20.00
   24.0506     70.74     73.40    -24.18     20.00
   24.0607     72.15     73.22    -22.60     20.00
   24.0709     72.67     73.05    -21.90     20.00
   24.0811     70.43     72.87    -23.97     20.00
   24.0912     70.54     72.70    -23.69     20.00
   24.1014     70.26     72.53    -23.79     20.00
   24.1116     70.04     72.36    -23.84     20.00
   24.1217     69.16     72.19    -24.55     20.00
   24.1319     70.11     72.02    -23.43     20.00
   24.1421     70.78     71.85    -22.60     20.00
   24.1522     70.03     71.69    -23.18     20.00
   24.1624     69.11     71.52    -23.93     20.00
   24.1725     67.60     71.35    -25.28     20.00
   24.1827     68.25     71.19    -24.46     20.00
   24.1929     67.74     71.03    -24.81     20.00
   24.2030     69.27     70.86    -23.12     20.00
   24.2132     68.40     70.70    -23.82     20.00
   24.2234     68.68     70.54    -23.38     20.00
   24.2335     67.02     70.38    -24.88     20.00
   24.2437     67.74     70.22    -24.00     20.00
   24.2539     67.03     70.06    -24.55     20.00
   24.2640     67.73     69.90    -23.70     20.00
   24.2742     67.04     69.74    -24.23     20.00
   24.2844     67.12     69.59    -23.99     20.00
   24.2945     65.77     69.43    -25.19     20.00
   24.3047     66.15     69.28    -24.65     20.00
   24.3148     67.26     69.12    -23.39     20.00
   24.3250     65.91     68.97    -24.58     20.00
   24.3352     65.62     68.81    -24.72     20.00
   24.3453     67.48     68.66    -22.71     20.00
   24.3555     65.71     68.51    -24.32     20.00
   24.3657     65.18     68.36    -24.70     20.00
   24.3758     66.12     68.21    -23.61     20.00
   24.3860     65.16     68.06    -24.42     20.00
   24.3962     65.50     67.91    -23.93     20.00
   24.4063     64.46     67.76    -24.82     20.00
   24.4165     65.49     67.61    -23.64     20.00
   24.4267     63.85     67.46    -25.14     20.00
   24.4368     65.87     67.32    -22.97     20.00
   24.4470     64.27     67.17    -24.42     20.00
   24.4572     63.70     67.02    -24.85     20.00
   24.4673     65.12     66.88    -23.28     20.00
   24.4775     64.18     66.73    -24.08     20.00
   24.4876     64.03     66.59    -24.08     20.00
   24.4978     63.96     66.45    -24.01     20.00
   24.5080     63.84     66.30    -23.99     20.00
   24.5181     64.37     66.16    -23.32     20.00
   24.5283     63.34     66.02    -24.20     20.00
   24.5385     63.57     65.88    -23.83     20.00
   24.5486     64.50     65.74    -22.76     20.00
   24.5588     63.49     65.60    -23.63     20.00
   24.5690     63.57     65.46    -23.41     20.00
   24.5791     64.09     65.32    -22.75     20.00
   24.5893     63.20     65.18    -23.50     20.00
   24.5995     63.74     65.04    -22.83     20.00
   24.6096     63.66     64.91    -22.77     20.00
   24.6198     62.24     64.77    -24.05     20.00
   24.6299     62.25     64.63    -23.91     20.00
   24.6401     63.25     64.50    -22.77     20.00
   24.6503     62.62     64.36    -23.26     20.00
   24.6604     63.61     64.23    -22.14     20.00
   24.6706     61.90     64.09    -23.72     20.00
   24.6808     62.29     63.96    -23.19     20.00
   24.6909     62.20     63.83    -23.15     20.00
   24.7011     61.99     63.69    -23.23     20.00
   24.7113     62.62     63.56    -22.46     20.00
   24.7214     61.28     63.43    -23.67     20.00
   24.7316     60.92     63.30    -23.90     20.00
   24.7418     61.54     63.17    -23.15     20.00
   24.7519     61.84     63.04    -22.72     20.00
   24.7621     62.07     62.91    -22.36     20.00
   24.7723     60.82     62.78    -23.48     20.00
   24.7824     61.52     62.65    -22.65     20.00
   24.7926     61.86     62.52    -22.18     20.00
   24.8027     60.63     62.39    -23.29     20.00
   24.8129     61.34     62.27    -22.45     20.00
   24.8231     60.45     62.14    -23.21     20.00
   24.8332     61.27     62.01    -22.27     20.00
   24.8434     60.40     61.89    -23.01     20.00
   24.8536     60.83     61.76    -22.45     20.00
   24.8637     60.18     61.64    -22.98     20.00
   24.8739     60.07     61.51    -22.97     20.00
   24.8841     59.91     61.39    -23.00     20.00
   24.8942     60.27     61.26    -22.52     20.00
   24.9044     59.38     61.14    -23.28     20.00
   24.9146     60.91     61.02    -21.63     20.00
   24.9247     59.92     60.90    -22.50     20.00
   24.9349     61.21     60.77    -21.09     20.00
   24.9450     60.30     60.65    -21.88     20.00
   24.9552     60.20     60.53    -21.86     20.00
   24.9654     60.43     60.41    -21.51     20.00
   24.9755     60.38     60.29    -21.44     20.00
   24.9857     59.01     60.17    -22.69     20.00
   24.9959     58.81     60.05    -22.77     20.00
   25.0060     59.10     59.94    -22.36     20.00
   25.0162     59.74     59.82    -21.60     20.00
   25.0264     58.82     59.70    -22.40     20.00
   25.0365     60.15     59.58    -20.96     20.00
   25.0467     58.89     59.47    -22.10     20.00
   25.0569     58.25     59.35    -22.62     20.00
   25.0670     58.06     59.24    -22.70     20.00
   25.0772     59.21     59.12    -21.43     20.00
   25.0874     59.29     59.01    -21.24     20.00
   25.0975     59.03     58.89    -21.39     20.00
   25.1077     57.72     58.78    -22.58     20.00
   25.1178     59.15     58.66    -21.04     20.00
   25.1280     58.46     58.55    -21.62     20.00
   25.1382     58.28     58.44    -21.68     20.00
   25.1483     59.18     58.33    -20.67     20.00
   25.1585     58.61     58.22    -21.13     20.00
   25.1687     58.33     58.10    -21.30     20.00
   25.1788     58.46     57.99    -21.06     20.00
   25.1890     58.18     57.88    -21.23     20.00
   25.1992     58.66     57.77    -20.64     20.00
   25.2093     58.98     57.66    -20.21     20.00
   25.2195     57.51     57.55    -21.57     20.00
   25.2297     57.92     57.45    -21.05     20.00
   25.2398     57.57     57.34    -21.29     20.00
   25.2500     57.30     57.23    -21.45     20.00
   25.2601     57.06     57.12    -21.59     20.00
   25.2703     58.30     57.02    -20.24     20.00
   25.2805     56.15     56.91    -22.28     20.00
   25.2906     56.75     56.80    -21.58     20.00
   25.3008     57.71     56.70    -20.51     20.00
   25.3110     55.90     56.59    -22.22     20.00
   25.3211     58.59     56.49    -19.42     20.00
   25.3313     57.59     56.39    -20.32     20.00
   25.3415     56.35     56.28    -21.46     20.00
   25.3516     57.95     56.18    -19.75     20.00
   25.3618     57.28     56.08    -20.32     20.00
   25.3720     57.10     55.97    -20.40     20.00
   25.3821     56.24     55.87    -21.16     20.00
   25.3923     56.54     55.77    -20.75     20.00
   25.4024     56.73     55.67    -20.46     20.00
   25.4126     58.01     55.57    -19.08     20.00
   25.4228     57.38     55.47    -19.61     20.00
   25.4329     56.24     55.37    -20.65     20.00
   25.4431     56.44     55.27    -20.35     20.00
   25.4533     57.17     55.17    -19.52     20.00
   25.4634     57.02     55.07    -19.58     20.00
   25.4736     55.76     54.97    -20.74     20.00
   25.4838     55.28     54.88    -21.12     20.00
   25.4939     56.35     54.78    -19.95     20.00
   25.5041     56.68     54.68    -19.53     20.00
   25.5143     55.79     54.59    -20.32     20.00
   25.5244     55.69     54.49    -20.33     20.00
   25.5346     56.09     54.40    -19.83     20.00
   25.5448     56.24     54.30    -19.59     20.00
   25.5549     57.65     54.21    -18.08     20.00
   25.5651     55.39     54.11    -20.25     20.00
   25.5752     55.81     54.02    -19.73     20.00
   25.5854     55.97     53.93    -19.48     20.00
   25.5956     56.27     53.83    -19.09     20.00
   25.6057     54.79     53.74    -20.48     20.00
   25.6159     56.63     53.65    -18.55     20.00
   25.6261     55.37     53.56    -19.71     20.00
   25.6362     54.57     53.47    -20.42     20.00
   25.6464     55.67     53.38    -19.23     20.00
   25.6566     55.72     53.29    -19.09     20.00
   25.6667     56.02     53.20    -18.71     20.00
   25.6769     55.43     53.11    -19.21     20.00
   25.6871     56.47     53.02    -18.08     20.00
   25.6972     54.66     52.94    -19.80     20.00
   25.7074     55.21     52.85    -19.16     20.00
   25.7175     54.47     52.76    -19.82     20.00
   25.7277     55.59     52.68    -18.61     20.00
   25.7379     54.78     52.59    -19.33     20.00
   25.7480     55.57     52.50    -18.46     20.00
   25.7582     55.26     52.42    -18.68     20.00
   25.7684     54.94     52.34    -18.92     20.00
   25.7785     55.59     52.25    -18.19     20.00
   25.7887     55.27     52.17    -18.42     20.00
   25.7989     54.73     52.08    -18.88     20.00
   25.8090     53.33     52.00    -20.20     20.00
   25.8192     54.91     51.92    -18.54     20.00
   25.8294     53.96     51.84    -19.40     20.00
   25.8395     53.16     51.76    -20.12     20.00
   25.8497     54.02     51.68    -19.18     20.00
   25.8599     54.02     51.60    -19.10     20.00
   25.8700     54.40     51.52    -18.64     20.00
   25.8802     53.16     51.44    -19.80     20.00
   25.8903     53.87     51.36    -19.02     20.00
   25.9005     53.31     51.29    -19.50     20.00
   25.9107     54.52     51.21    -18.21     20.00
   25.9208     54.18     51.13    -18.48     20.00
   25.9310     53.62     51.06    -18.96     20.00
   25.9412     53.46     50.98    -19.04     20.00
   25.9513     52.09     50.91    -20.34     20.00
   25.9615     52.80     50.83    -19.55     20.00
   25.9717     53.66     50.76    -18.62     20.00
   25.9818     52.99     50.68    -19.22     20.00
   25.9920     54.09     50.61    -18.05     20.00
   26.0022     53.19     50.54    -18.87     20.00
   26.0123     52.22     50.47    -19.77     20.00
   26.0225     53.10     50.40    -18.82     20.00
   26.0326     54.11     50.33    -17.74     20.00
   26.0428     52.87     50.26    -18.91     20.00
   26.0530     53.31     50.19    -18.40     20.00
   26.0631     53.14     50.12    -18.50     20.00
   26.0733     52.87     50.05    -18.71     20.00
   26.0835     52.66     49.98    -18.85     20.00
   26.0936     52.96     49.92    -18.48     20.00
   26.1038     53.34     49.85    -18.04     20.00
   26.1140     53.27     49.79    -18.04     20.00
   26.1241     51.90     49.72    -19.35     20.00
   26.1343     53.10     49.66    -18.08     20.00
   26.1445     53.66     49.60    -17.46     20.00
   26.1546     52.10     49.53    -18.96     20.00
   26.1648     52.24     49.47    -18.76     20.00
   26.1750     53.45     49.41    -17.48     20.00
   26.1851     52.14     49.35    -18.73     20.00
   26.1953     53.04     49.29    -17.77     20.00
   26.2054     51.88     49.23    -18.88     20.00
   26.2156     52.79     49.17    -17.91     20.00
   26.2258     52.25     49.12    -18.39     20.00
   26.2359     51.01     49.06    -19.57     20.00
   26.2461     51.74     49.00    -18.79     20.00
   26.2563     51.95     48.95    -18.52     20.00
   26.2664     51.77     48.89    -18.65     20.00
   26.2766     52.43     48.84    -17.93     20.00
   26.2868     52.13     48.79    -18.18     20.00
   26.2969     51.57     48.74    -18.69     20.00
   26.3071     51.29     48.68    -18.92     20.00
   26.3173     50.37     48.63    -19.79     20.00
   26.3274     52.15     48.58    -17.96     20.00
   26.3376     52.01     48.54    -18.05     20.00
   26.3477     50.91     48.49    -19.10     20.00
   26.3579     52.04     48.44    -17.93     20.00
   26.3681     51.48     48.40    -18.44     20.00
   26.3782     51.01     48.35    -18.87     20.00
   26.3884     51.63     48.31    -18.20     20.00
   26.3986     52.67     48.26    -17.12     20.00
   26.4087     50.20     48.22    -19.55     20.00
   26.4189     50.93     48.18    -18.77     20.00
   26.4291     52.01     48.14    -17.65     20.00
   26.4392     51.24     48.10    -18.38     20.00
   26.4494     51.01     48.06    -18.58     20.00
   26.4596     50.77     48.02    -18.78     20.00
   26.4697     51.17     47.99    -18.34     20.00
   26.4799     50.13     47.95    -19.35     20.00
   26.4901     50.54     47.92    -18.90     20.00
   26.5002     51.58     47.89    -17.83     20.00
   26.5104     50.77     47.85    -18.61     20.00
   26.5205     51.00     47.82    -18.35     20.00
   26.5307     50.98     47.79    -18.34     20.00
   26.5409     50.43     47.76    -18.86     20.00
   26.5510     50.43     47.74    -18.83     20.00
   26.5612     50.87     47.71    -18.36     20.00
   26.5714     50.40     47.68    -18.81     20.00
   26.5815     51.37     47.66    -17.81     20.00
   26.5917     51.57     47.64    -17.59     20.00
   26.6019     50.38     47.62    -18.76     20.00
   26.6120     50.70     47.59    -18.42     20.00
   26.6222     50.26     47.58    -18.84     20.00
   26.6324     51.18     47.56    -17.90     20.00
   26.6425     50.50     47.54    -18.56     20.00
   26.6527     50.05     47.53    -19.00     20.00
   26.6628     49.70     47.51    -19.34     20.00
   26.6730     51.40     47.50    -17.62     20.00
   26.6832     49.55     47.49    -19.46     20.00
   26.6933     50.44     47.48    -18.56     20.00
   26.7035     51.67     47.47    -17.32     20.00
   26.7137     49.48     47.46    -19.50     20.00
   26.7238     50.71     47.45    -18.27     20.00
   26.7340     50.67     47.45    -18.30     20.00
   26.7442     49.39     47.45    -19.58     20.00
   26.7543     50.46     47.44    -18.51     20.00
   26.7645     50.27     47.44    -18.70     20.00
   26.7747     49.63     47.45    -19.34     20.00
   26.7848     49.86     47.45    -19.11     20.00
   26.7950     49.49     47.45    -19.49     20.00
   26.8052     50.10     47.46    -18.88     20.00
   26.8153     49.77     47.47    -19.22     20.00
   26.8255     49.44     47.48    -19.56     20.00
   26.8356     51.26     47.49    -17.75     20.00
   26.8458     48.94     47.50    -20.08     20.00
   26.8560     48.99     47.51    -20.05     20.00
   26.8661     49.38     47.53    -19.67     20.00
   26.8763     50.12     47.54    -18.95     20.00
   26.8865     50.09     47.56    -19.00     20.00
   26.8966     49.91     47.58    -19.20     20.00
   26.9068     50.01     47.60    -19.12     20.00
   26.9170     49.71     47.63    -19.44     20.00
   26.9271     50.08     47.65    -19.10     20.00
   26.9373     49.92     47.68    -19.29     20.00
   26.9475     49.37     47.71    -19.86     20.00
   26.9576     49.77     47.74    -19.49     20.00
   26.9678     50.40     47.77    -18.90     20.00
   26.9779     49.47     47.81    -19.86     20.00
   26.9881     48.74     47.84    -20.63     20.00
   26.9983     50.06     47.88    -19.35     20.00
   27.0084     49.59     47.92    -19.86     20.00
   27.0186     49.29     47.96    -20.20     20.00
   27.0288     49.87     48.01    -19.66     20.00
   27.0389     50.18     48.05    -19.40     20.00
   27.0491     49.45     48.10    -20.17     20.00
   27.0593     50.32     48.15    -19.35     20.00
   27.0694     49.62     48.20    -20.10     20.00
   27.0796     49.48     48.25    -20.30     20.00
   27.0898     48.68     48.31    -21.15     20.00
   27.0999     49.65     48.36    -20.24     20.00
   27.1101     49.97     48.42    -19.98     20.00
   27.1202     49.05     48.48    -20.96     20.00
   27.1304     48.94     48.55    -21.13     20.00
   27.1406     49.60     48.61    -20.53     20.00
   27.1507     49.91     48.68    -20.29     20.00
   27.1609     49.82     48.75    -20.45     20.00
   27.1711     48.60     48.82    -21.74     20.00
   27.1812     49.62     48.89    -20.79     20.00
   27.1914     49.91     48.96    -20.58     20.00
   27.2016     49.23     49.04    -21.33     20.00
   27.2117     49.66     49.12    -20.98     20.00
   27.2219     49.87     49.20    -20.85     20.00
   27.2321     48.67     49.28    -22.13     20.00
   27.2422     49.98     49.36    -20.91     20.00
   27.2524     49.98     49.45    -21.00     20.00
   27.2626     50.46     49.54    -20.60     20.00
   27.2727     48.86     49.63    -22.29     20.00
   27.2829     48.97     49.72    -22.28     20.00
   27.2930     49.60     49.82    -21.74     20.00
   27.3032     49.69     49.91    -21.75     20.00
   27.3134     49.48     50.01    -22.06     20.00
   27.3235     49.43     50.11    -22.21     20.00
   27.3337     49.90     50.21    -21.84     20.00
   27.3439     50.06     50.32    -21.78     20.00
   27.3540     49.86     50.42    -22.09     20.00
   27.3642     49.32     50.53    -22.74     20.00
   27.3744     50.32     50.64    -21.85     20.00
   27.3845     50.45     50.76    -21.83     20.00
   27.3947     50.47     50.87    -21.92     20.00
   27.4049     50.73     50.99    -21.78     20.00
   27.4150     50.07     51.10    -22.56     20.00
   27.4252     49.95     51.22    -22.80     20.00
   27.4353     49.52     51.34    -23.35     20.00
   27.4455     50.68     51.47    -22.31     20.00
   27.4557     50.87     51.59    -22.25     20.00
   27.4658     50.01     51.72    -23.23     20.00
   27.4760     50.88     51.85    -22.49     20.00
   27.4862     51.20     51.98    -22.30     20.00
   27.4963     49.78     52.11    -23.86     20.00
   27.5065     50.83     52.25    -22.94     20.00
   27.5167     51.45     52.38    -22.46     20.00
   27.5268     50.82     52.52    -23.22     20.00
   27.5370     50.24     52.66    -23.94     20.00
   27.5472     51.67     52.80    -22.65     20.00
   27.5573     50.84     52.94    -23.62     20.00
   27.5675     50.70     53.08    -23.91     20.00
   27.5777     51.20     53.23    -23.55     20.00
   27.5878     51.50     53.37    -23.40     20.00
   27.5980     51.26     53.52    -23.79     20.00
   27.6081     51.54     53.67    -23.65     20.00
   27.6183     51.04     53.82    -24.31     20.00
   27.6285     51.95     53.97    -23.55     20.00
   27.6386     51.79     54.13    -23.86     20.00
   27.6488     50.71     54.28    -25.09     20.00
   27.6590     52.90     54.44    -23.06     20.00
   27.6691     51.93     54.59    -24.19     20.00
   27.6793     52.28     54.75    -23.99     20.00
   27.6895     52.26     54.91    -24.17     20.00
   27.6996     53.70     55.07    -22.89     20.00
   27.7098     51.88     55.23    -24.87     20.00
   27.7200     53.15     55.39    -23.76     20.00
   27.7301     53.16     55.55    -23.91     20.00
   27.7403     52.48     55.71    -24.76     20.00
   27.7504     52.54     55.87    -24.86     20.00
   27.7606     52.57     56.04    -24.99     20.00
   27.7708     52.37     56.20    -25.36     20.00
   27.7809     52.88     56.36    -25.01     20.00
   27.7911     54.16     56.53    -23.89     20.00
   27.8013     54.20     56.69    -24.02     20.00
   27.8114     54.74     56.86    -23.64     20.00
   27.8216     54.27     57.02    -24.28     20.00
   27.8318     54.93     57.19    -23.78     20.00
   27.8419     54.76     57.35    -24.11     20.00
   27.8521     54.69     57.52    -24.35     20.00
   27.8623     53.62     57.68    -25.58     20.00
   27.8724     54.93     57.84    -24.44     20.00
   27.8826     55.23     58.00    -24.30     20.00
   27.8928     56.47     58.17    -23.22     20.00
   27.9029     56.28     58.33    -23.57     20.00
   27.9131     57.22     58.49    -22.79     20.00
   27.9232     56.34     58.65    -23.83     20.00
   27.9334     56.71     58.80    -23.62     20.00
   27.9436     57.00     58.96    -23.49     20.00
   27.9537     57.39     59.12    -23.25     20.00
   27.9639     58.07     59.27    -22.72     20.00
   27.9741     57.77     59.42    -23.18     20.00
   27.9842     58.07     59.57    -23.03     20.00
   27.9944     58.55     59.72    -22.70     20.00
   28.0046     58.54     59.87    -22.85     20.00
   28.0147     59.21     60.01    -22.33     20.00
   28.0249     58.41     60.16    -23.27     20.00
   28.0351     59.10     60.30    -22.72     20.00
   28.0452     58.76     60.43    -23.20     20.00
   28.0554     60.38     60.57    -21.71     20.00
   28.0655     59.77     60.70    -22.45     20.00
   28.0757     59.70     60.83    -22.65     20.00
   28.0859     61.04     60.96    -21.44     20.00
   28.0960     58.92     61.08    -23.68     20.00
   28.1062     61.07     61.20    -21.65     20.00
   28.1164     61.41     61.32    -21.43     20.00
   28.1265     60.49     61.43    -22.46     20.00
   28.1367     60.91     61.54    -22.15     20.00
   28.1469     62.55     61.65    -20.62     20.00
   28.1570     62.42     61.75    -20.85     20.00
   28.1672     61.58     61.85    -21.79     20.00
   28.1774     61.68     61.94    -21.78     20.00
   28.1875     61.95     62.03    -21.60     20.00
   28.1977     62.84     62.11    -20.80     20.00
   28.2079     63.05     62.19    -20.67     20.00
   28.2180     62.73     62.27    -21.06     20.00
   28.2282     64.07     62.34    -19.80     20.00
   28.2383     64.48     62.41    -19.45     20.00
   28.2485     65.54     62.47    -18.46     20.00
   28.2587     64.25     62.53    -19.80     20.00
   28.2688     65.27     62.58    -18.83     20.00
   28.2790     65.88     62.63    -18.27     20.00
   28.2892     65.03     62.67    -19.16     20.00
   28.2993     64.21     62.71    -20.02     20.00
   28.3095     65.04     62.74    -19.22     20.00
   28.3197     65.89     62.77    -18.40     20.00
   28.3298     64.35     62.79    -19.96     20.00
   28.3400     64.90     62.80    -19.43     20.00
   28.3502     65.26     62.81    -19.08     20.00
   28.3603     64.13     62.82    -20.21     20.00
   28.3705     64.45     62.82    -19.89     20.00
   28.3806     65.51     62.81    -18.83     20.00
   28.3908     64.60     62.80    -19.73     20.00
   28.4010     64.23     62.79    -20.08     20.00
   28.4111     65.61     62.76    -18.68     20.00
   28.4213     65.77     62.74    -18.49     20.00
   28.4315     65.71     62.70    -18.52     20.00
   28.4416     65.76     62.67    -18.43     20.00
   28.4518     65.51     62.62    -18.64     20.00
   28.4620     64.26     62.58    -19.84     20.00
   28.4721     65.19     62.52    -18.86     20.00
   28.4823     64.59     62.46    -19.40     20.00
   28.4925     64.34     62.40    -19.59     20.00
   28.5026     64.57     62.33    -19.29     20.00
   28.5128     65.38     62.26    -18.40     20.00
   28.5230     64.54     62.18    -19.17     20.00
   28.5331     64.33     62.10    -19.30     20.00
   28.5433     63.99     62.01    -19.55     20.00
   28.5534     62.96     61.92    -20.49     20.00
   28.5636     63.96     61.83    -19.39     20.00
   28.5738     64.42     61.73    -18.83     20.00
   28.5839     63.20     61.62    -19.95     20.00
   28.5941     62.72     61.52    -20.32     20.00
   28.6043     62.77     61.40    -20.16     20.00
   28.6144     63.10     61.29    -19.71     20.00
   28.6246     63.65     61.17    -19.04     20.00
   28.6348     64.73     61.05    -17.84     20.00
   28.6449     63.18     60.92    -19.26     20.00
   28.6551     62.23     60.79    -20.08     20.00
   28.6653     62.76     60.66    -19.42     20.00
   28.6754     62.81     60.52    -19.24     20.00
   28.6856     62.94     60.38    -18.97     20.00
   28.6957     62.17     60.24    -19.59     20.00
   28.7059     60.15     60.10    -21.47     20.00
   28.7161     61.27     59.95    -20.20     20.00
   28.7262     60.84     59.80    -20.48     20.00
   28.7364     59.72     59.65    -21.45     20.00
   28.7466     59.57     59.49    -21.45     20.00
   28.7567     60.39     59.34    -20.47     20.00
   28.7669     59.64     59.18    -21.06     20.00
   28.7771     59.27     59.02    -21.27     20.00
   28.7872     59.15     58.86    -21.23     20.00
   28.7974     57.45     58.69    -22.77     20.00
   28.8076     58.22     58.53    -21.83     20.00
   28.8177     59.24     58.36    -20.65     20.00
   28.8279     58.20     58.19    -21.52     20.00
   28.8381     58.99     58.03    -20.56     20.00
   28.8482     56.77     57.86    -22.61     20.00
   28.8584     56.96     57.69    -22.25     20.00
   28.8685     56.88     57.51    -22.16     20.00
   28.8787     57.35     57.34    -21.52     20.00
   28.8889     57.10     57.17    -21.59     20.00
   28.8990     56.05     57.00    -22.47     20.00
   28.9092     56.98     56.82    -21.36     20.00
   28.9194     56.10     56.64    -22.07     20.00
   28.9295     56.29     56.47    -21.70     20.00
   28.9397     56.18     56.29    -21.64     20.00
   28.9499     54.91     56.12    -22.73     20.00
   28.9600     56.25     55.94    -21.22     20.00
   28.9702     55.13     55.77    -22.16     20.00
   28.9804     54.66     55.59    -22.46     20.00
   28.9905     54.37     55.42    -22.57     20.00
   29.0007     54.22     55.24    -22.54     20.00
   29.0108     54.48     55.07    -22.11     20.00
   29.0210     54.12     54.89    -22.30     20.00
   29.0312     54.07     54.72    -22.17     20.00
   29.0413     54.09     54.54    -21.98     20.00
   29.0515     52.83     54.37    -23.06     20.00
   29.0617     52.96     54.19    -22.76     20.00
   29.0718     53.27     54.02    -22.28     20.00
   29.0820     51.46     53.85    -23.91     20.00
   29.0922     53.26     53.68    -21.94     20.00
   29.1023     51.68     53.51    -23.35     20.00
   29.1125     52.15     53.34    -22.71     20.00
   29.1227     52.71     53.17    -21.98     20.00
   29.1328     51.76     53.00    -22.77     20.00
   29.1430     52.36     52.83    -22.00     20.00
   29.1531     52.21     52.67    -21.98     20.00
   29.1633     51.13     52.50    -22.89     20.00
   29.1735     51.14     52.34    -22.72     20.00
   29.1836     51.29     52.17    -22.41     20.00
   29.1938     49.98     52.01    -23.55     20.00
   29.2040     50.76     51.85    -22.61     20.00
   29.2141     50.90     51.69    -22.31     20.00
   29.2243     50.23     51.53    -22.82     20.00
   29.2345     49.89     51.37    -23.00     20.00
   29.2446     49.06     51.21    -23.67     20.00
   29.2548     50.01     51.05    -22.57     20.00
   29.2650     49.17     50.90    -23.25     20.00
   29.2751     49.37     50.74    -22.90     20.00
   29.2853     49.02     50.59    -23.09     20.00
   29.2955     48.06     50.44    -23.90     20.00
   29.3056     48.54     50.29    -23.27     20.00
   29.3158     48.72     50.14    -22.94     20.00
   29.3259     48.37     49.99    -23.14     20.00
   29.3361     48.47     49.84    -22.89     20.00
   29.3463     48.15     49.69    -23.07     20.00
   29.3564     48.80     49.55    -22.27     20.00
   29.3666     48.02     49.41    -22.91     20.00
   29.3768     47.79     49.26    -23.00     20.00
   29.3869     47.23     49.12    -23.42     20.00
   29.3971     47.09     48.98    -23.41     20.00
   29.4073     47.93     48.84    -22.44     20.00
   29.4174     47.36     48.70    -22.87     20.00
   29.4276     46.22     48.57    -23.87     20.00
   29.4378     47.16     48.43    -22.79     20.00
   29.4479     47.21     48.30    -22.61     20.00
   29.4581     46.58     48.16    -23.11     20.00
   29.4682     47.45     48.03    -22.11     20.00
   29.4784     46.90     47.90    -22.52     20.00
   29.4886     46.83     47.77    -22.46     20.00
   29.4987     46.63     47.64    -22.54     20.00
   29.5089     46.06     47.51    -22.98     20.00
   29.5191     45.88     47.39    -23.03     20.00
   29.5292     46.53     47.26    -22.26     20.00
   29.5394     45.89     47.14    -22.77     20.00
   29.5496     45.75     47.01    -22.79     20.00
   29.5597     46.07     46.89    -22.35     20.00
   29.5699     44.42     46.77    -23.87     20.00
   29.5801     46.49     46.65    -21.68     20.00
   29.5902     45.35     46.53    -22.71     20.00
   29.6004     46.49     46.41    -21.45     20.00
   29.6106     45.99     46.30    -21.83     20.00
   29.6207     45.45     46.18    -22.25     20.00
   29.6309     45.54     46.06    -22.05     20.00
   29.6410     45.05     45.95    -22.42     20.00
   29.6512     45.20     45.84    -22.16     20.00
   29.6614     45.74     45.72    -21.51     20.00
   29.6715     44.66     45.61    -22.48     20.00
   29.6817     45.10     45.50    -21.93     20.00
   29.6919     43.82     45.39    -23.10     20.00
   29.7020     44.52     45.28    -22.29     20.00
   29.7122     43.51     45.18    -23.19     20.00
   29.7224     44.77     45.07    -21.82     20.00
   29.7325     45.29     44.96    -21.20     20.00
   29.7427     44.06     44.86    -22.32     20.00
   29.7529     44.02     44.75    -22.25     20.00
   29.7630     44.82     44.65    -21.35     20.00
   29.7732     43.96     44.54    -22.11     20.00
   29.7833     43.77     44.44    -22.19     20.00
   29.7935     44.16     44.34    -21.70     20.00
   29.8037     44.04     44.24    -21.72     20.00
   29.8138     44.01     44.14    -21.65     20.00
   29.8240     43.77     44.04    -21.79     20.00
   29.8342     44.66     43.94    -20.80     20.00
   29.8443     44.10     43.84    -21.26     20.00
   29.8545     43.38     43.74    -21.88     20.00
   29.8647     44.57     43.64    -20.60     20.00
   29.8748     43.39     43.55    -21.68     20.00
   29.8850     43.04     43.45    -21.93     20.00
   29.8952     42.94     43.35    -21.94     20.00
   29.9053     44.01     43.26    -20.77     20.00
   29.9155     43.12     43.16    -21.57     20.00
   29.9257     43.37     43.07    -21.22     20.00
   29.9358     43.34     42.98    -21.16     20.00
   29.9460     43.96     42.88    -20.45     20.00
   29.9561     42.82     42.79    -21.50     20.00
   29.9663     42.77     42.70    -21.45     20.00
   29.9765     43.01     42.61    -21.12     20.00
   29.9866     41.49     42.52    -22.55     20.00
   29.9968     43.10     42.43    -20.85     20.00
   30.0070     41.77     42.34    -22.09     20.00
   30.0171     42.50     42.25    -21.27     20.00
   30.0273     42.54     42.16    -21.14     20.00
   30.0375     43.84     42.07    -19.75     20.00
   30.0476     42.21     41.98    -21.30     20.00
   30.0578     42.28     41.89    -21.14     20.00
   30.0680     41.95     41.80    -21.38     20.00
   30.0781     41.76     41.72    -21.48     20.00
   30.0883     40.90     41.63    -22.26     20.00
   30.0984     42.84     41.55    -20.23     20.00
   30.1086     42.10     41.46    -20.88     20.00
   30.1188     41.05     41.37    -21.85     20.00
   30.1289     41.18     41.29    -21.63     20.00
   30.1391     42.29     41.20    -20.44     20.00
   30.1493     41.29     41.12    -21.35     20.00
   30.1594     40.65     41.03    -21.91     20.00
   30.1696     41.84     40.95    -20.63     20.00
   30.1798     41.20     40.87    -21.19     20.00
   30.1899     41.80     40.78    -20.51     20.00
   30.2001     40.68     40.70    -21.54     20.00
   30.2103     41.45     40.62    -20.69     20.00
   30.2204     41.01     40.53    -21.05     20.00
   30.2306     41.13     40.45    -20.85     20.00
   30.2408     41.76     40.37    -20.13     20.00
   30.2509     41.44     40.29    -20.37     20.00
   30.2611     40.14     40.21    -21.59     20.00
   30.2712     39.97     40.13    -21.68     20.00
   30.2814     41.10     40.05    -20.47     20.00
   30.2916     39.30     39.97    -22.19     20.00
   30.3017     39.45     39.89    -21.96     20.00
   30.3119     39.90     39.81    -21.43     20.00
   30.3221     39.80     39.73    -21.45     20.00
   30.3322     39.57     39.65    -21.60     20.00
   30.3424     40.60     39.57    -20.49     20.00
   30.3526     38.63     39.49    -22.39     20.00
   30.3627     40.09     39.41    -20.85     20.00
   30.3729     39.57     39.34    -21.29     20.00
   30.3831     38.65     39.26    -22.13     20.00
   30.3932     39.54     39.18    -21.17     20.00
   30.4034     39.01     39.11    -21.62     20.00
   30.4135     39.61     39.03    -20.94     20.00
   30.4237     39.01     38.95    -21.47     20.00
   30.4339     39.04     38.88    -21.36     20.00
   30.4440     37.65     38.80    -22.68     20.00
   30.4542     37.82     38.73    -22.43     20.00
   30.4644     38.84     38.65    -21.33     20.00
   30.4745     38.30     38.58    -21.80     20.00
   30.4847     38.25     38.50    -21.78     20.00
   30.4949     37.95     38.43    -22.00     20.00
   30.5050     37.34     38.35    -22.54     20.00
   30.5152     37.90     38.28    -21.90     20.00
   30.5254     38.02     38.21    -21.71     20.00
   30.5355     38.43     38.13    -21.23     20.00
   30.5457     38.60     38.06    -20.99     20.00
   30.5559     38.43     37.99    -21.08     20.00
   30.5660     36.98     37.92    -22.46     20.00
   30.5762     38.49     37.85    -20.88     20.00
   30.5863     37.55     37.78    -21.75     20.00
   30.5965     38.11     37.70    -21.12     20.00
   30.6067     37.72     37.63    -21.44     20.00
   30.6168     38.33     37.56    -20.76     20.00
   30.6270     36.35     37.49    -22.67     20.00
   30.6372     37.11     37.42    -21.84     20.00
   30.6473     37.34     37.36    -21.54     20.00
   30.6575     36.72     37.29    -22.09     20.00
   30.6677     37.57     37.22    -21.17     20.00
   30.6778     36.70     37.15    -21.97     20.00
   30.6880     36.24     37.08    -22.37     20.00
   30.6982     37.03     37.01    -21.51     20.00
   30.7083     37.02     36.95    -21.45     20.00
   30.7185     36.26     36.88    -22.14     20.00
   30.7286     36.18     36.81    -22.16     20.00
   30.7388     37.51     36.75    -20.76     20.00
   30.7490     36.38     36.68    -21.83     20.00
   30.7591     36.49     36.62    -21.65     20.00
   30.7693     36.82     36.55    -21.26     20.00
   30.7795     35.37     36.49    -22.64     20.00
   30.7896     35.37     36.42    -22.58     20.00
   30.7998     36.50     36.36    -21.38     20.00
   30.8100     36.17     36.30    -21.65     20.00
   30.8201     36.62     36.23    -21.14     20.00
   30.8303     36.26     36.17    -21.43     20.00
   30.8405     36.04     36.11    -21.59     20.00
   30.8506     34.76     36.05    -22.81     20.00
   30.8608     36.40     35.98    -21.11     20.00
   30.8710     36.16     35.92    -21.29     20.00
   30.8811     36.18     35.86    -21.21     20.00
   30.8913     35.22     35.80    -22.11     20.00
   30.9014     35.07     35.74    -22.20     20.00
   30.9116     35.00     35.68    -22.21     20.00
   30.9218     36.21     35.62    -20.94     20.00
   30.9319     35.75     35.57    -21.34     20.00
   30.9421     35.63     35.51    -21.40     20.00
   30.9523     35.48     35.45    -21.49     20.00
   30.9624     34.51     35.39    -22.41     20.00
   30.9726     35.79     35.33    -21.07     20.00
   30.9828     34.93     35.28    -21.87     20.00
   30.9929     34.64     35.22    -22.11     20.00
   31.0031     35.92     35.17    -20.77     20.00
   31.0133     35.51     35.11    -21.12     20.00
   31.0234     35.13     35.06    -21.45     20.00
   31.0336     35.04     35.00    -21.49     20.00
   31.0437     34.45     34.95    -22.02     20.00
   31.0539     34.49     34.89    -21.93     20.00
   31.0641     34.35     34.84    -22.01     20.00
   31.0742     34.52     34.79    -21.79     20.00
   31.0844     34.71     34.74    -21.55     20.00
   31.0946     35.18     34.68    -21.03     20.00
   31.1047     34.59     34.63    -21.57     20.00
   31.1149     34.73     34.58    -21.37     20.00
   31.1251     34.66     34.53    -21.39     20.00
   31.1352     35.16     34.48    -20.84     20.00
   31.1454     34.97     34.43    -20.98     20.00
   31.1556     34.80     34.38    -21.10     20.00
   31.1657     34.60     34.33    -21.26     20.00
   31.1759     34.82     34.28    -20.99     20.00
   31.1860     34.87     34.24    -20.89     20.00
   31.1962     33.85     34.19    -21.86     20.00
   31.2064     34.36     34.14    -21.30     20.00
   31.2165     34.63     34.09    -20.99     20.00
   31.2267     34.77     34.05    -20.80     20.00
   31.2369     34.16     34.00    -21.37     20.00
   31.2470     34.48     33.96    -21.00     20.00
   31.2572     35.54     33.91    -19.90     20.00
   31.2674     34.46     33.87    -20.93     20.00
   31.2775     33.95     33.82    -21.40     20.00
   31.2877     34.73     33.78    -20.57     20.00
   31.2979     33.95     33.74    -21.31     20.00
   31.3080     34.34     33.69    -20.88     20.00
   31.3182     34.40     33.65    -20.78     20.00
   31.3284     33.51     33.61    -21.62     20.00
   31.3385     34.43     33.57    -20.66     20.00
   31.3487     34.29     33.53    -20.76     20.00
   31.3588     33.52     33.49    -21.49     20.00
   31.3690     34.00     33.45    -20.97     20.00
   31.3792     33.82     33.41    -21.11     20.00
   31.3893     33.77     33.37    -21.13     20.00
   31.3995     34.27     33.33    -20.59     20.00
   31.4097     34.20     33.29    -20.62     20.00
   31.4198     34.08     33.26    -20.70     20.00
   31.4300     33.94     33.22    -20.80     20.00
   31.4402     33.99     33.18    -20.72     20.00
   31.4503     33.10     33.15    -21.57     20.00
   31.4605     33.48     33.11    -21.16     20.00
   31.4707     33.84     33.08    -20.76     20.00
   31.4808     32.76     33.04    -21.81     20.00
   31.4910     34.02     33.01    -20.51     20.00
   31.5011     33.64     32.97    -20.86     20.00
   31.5113     33.49     32.94    -20.98     20.00
   31.5215     34.09     32.91    -20.34     20.00
   31.5316     33.55     32.88    -20.85     20.00
   31.5418     33.44     32.84    -20.93     20.00
   31.5520     32.78     32.81    -21.56     20.00
   31.5621     33.61     32.78    -20.70     20.00
   31.5723     32.84     32.75    -21.43     20.00
   31.5825     33.59     32.72    -20.65     20.00
   31.5926     34.04     32.69    -20.18     20.00
   31.6028     33.08     32.66    -21.11     20.00
   31.6130     33.39     32.63    -20.77     20.00
   31.6231     33.95     32.61    -20.18     20.00
   31.6333     33.59     32.58    -20.51     20.00
   31.6435     32.81     32.55    -21.26     20.00
   31.6536     32.91     32.52    -21.14     20.00
   31.6638     33.41     32.50    -20.61     20.00
   31.6739     33.68     32.47    -20.31     20.00
   31.6841     33.30     32.45    -20.67     20.00
   31.6943     32.45     32.42    -21.49     20.00
   31.7044     32.81     32.40    -21.11     20.00
   31.7146     33.33     32.37    -20.57     20.00
   31.7248     32.84     32.35    -21.03     20.00
   31.7349     32.83     32.32    -21.02     20.00
   31.7451     33.40     32.30    -20.43     20.00
   31.7553     33.57     32.28    -20.23     20.00
   31.7654     32.36     32.26    -21.42     20.00
   31.7756     33.01     32.24    -20.75     20.00
   31.7858     33.07     32.21    -20.67     20.00
   31.7959     32.74     32.19    -20.98     20.00
   31.8061     33.37     32.17    -20.33     20.00
   31.8162     33.25     32.15    -20.43     20.00
   31.8264     32.90     32.13    -20.76     20.00
   31.8366     32.62     32.11    -21.02     20.00
   31.8467     32.75     32.10    -20.87     20.00
   31.8569     32.63     32.08    -20.97     20.00
   31.8671     33.68     32.06    -19.90     20.00
   31.8772     32.60     32.04    -20.97     20.00
   31.8874     32.90     32.03    -20.65     20.00
   31.8976     33.04     32.01    -20.49     20.00
   31.9077     33.04     31.99    -20.48     20.00
   31.9179     32.60     31.98    -20.90     20.00
   31.9281     32.35     31.96    -21.14     20.00
   31.9382     31.77     31.95    -21.70     20.00
   31.9484     32.65     31.93    -20.81     20.00
   31.9586     33.30     31.92    -20.14     20.00
   31.9687     32.72     31.91    -20.71     20.00
   31.9789     32.70     31.89    -20.72     20.00
   31.9890     33.22     31.88    -20.18     20.00
   31.9992     32.33     31.87    -21.06     20.00
   32.0094     32.69     31.85    -20.69     20.00
   32.0195     32.30     31.84    -21.07     20.00
   32.0297     33.10     31.83    -20.25     20.00
   32.0399     32.80     31.82    -20.54     20.00
   32.0500     33.31     31.81    -20.02     20.00
   32.0602     32.74     31.80    -20.58     20.00
   32.0704     32.84     31.79    -20.47     20.00
   32.0805     33.41     31.78    -19.89     20.00
   32.0907     32.65     31.77    -20.64     20.00
   32.1009     33.20     31.76    -20.08     20.00
   32.1110     33.07     31.75    -20.21     20.00
   32.1212     32.28     31.74    -20.99     20.00
   32.1313     33.26     31.74    -20.00     20.00
   32.1415     32.85     31.73    -20.40     20.00
   32.1517     32.51     31.72    -20.74     20.00
   32.1618     32.99     31.71    -20.25     20.00
   32.1720     32.59     31.71    -20.64     20.00
   32.1822     32.41     31.70    -20.82     20.00
   32.1923     32.60     31.70    -20.62     20.00
   32.2025     32.71     31.69    -20.50     20.00
   32.2127     31.27     31.68    -21.94     20.00
   32.2228     33.27     31.68    -19.93     20.00
   32.2330     32.36     31.67    -20.84     20.00
   32.2432     32.25     31.67    -20.94     20.00
   32.2533     32.53     31.67    -20.66     20.00
   32.2635     32.95     31.66    -20.24     20.00
   32.2737     32.33     31.66    -20.85     20.00
   32.2838     31.31     31.65    -21.87     20.00
   32.2940     32.58     31.65    -20.60     20.00
   32.3041     31.76     31.65    -21.41     20.00
   32.3143     31.79     31.65    -21.38     20.00
   32.3245     32.07     31.64    -21.10     20.00
   32.3346     32.51     31.64    -20.66     20.00
   32.3448     32.01     31.64    -21.15     20.00
   32.3550     33.24     31.64    -19.92     20.00
   32.3651     31.67     31.64    -21.49     20.00
   32.3753     32.27     31.64    -20.89     20.00
   32.3855     33.03     31.64    -20.13     20.00
   32.3956     32.45     31.63    -20.71     20.00
   32.4058     33.18     31.63    -19.98     20.00
   32.4160     33.40     31.63    -19.76     20.00
   32.4261     32.51     31.63    -20.65     20.00
   32.4363     33.10     31.63    -20.06     20.00
   32.4464     33.20     31.63    -19.96     20.00
   32.4566     33.20     31.63    -19.96     20.00
   32.4668     32.18     31.63    -20.98     20.00
   32.4769     31.79     31.64    -21.37     20.00
   32.4871     32.75     31.64    -20.41     20.00
   32.4973     32.48     31.64    -20.68     20.00
   32.5074     32.25     31.64    -20.91     20.00
   32.5176     31.69     31.64    -21.47     20.00
   32.5278     32.90     31.64    -20.27     20.00
   32.5379     31.90     31.64    -21.27     20.00
   32.5481     31.75     31.64    -21.42     20.00
   32.5583     32.85     31.65    -20.32     20.00
   32.5684     32.88     31.65    -20.29     20.00
   32.5786     32.23     31.65    -20.94     20.00
   32.5888     32.45     31.65    -20.73     20.00
   32.5989     32.51     31.65    -20.67     20.00
   32.6091     32.18     31.66    -21.00     20.00
   32.6192     32.49     31.66    -20.69     20.00
   32.6294     32.68     31.66    -20.51     20.00
   32.6396     31.60     31.66    -21.59     20.00
   32.6497     32.47     31.67    -20.72     20.00
   32.6599     33.02     31.67    -20.17     20.00
   32.6701     32.77     31.67    -20.43     20.00
   32.6802     31.83     31.67    -21.37     20.00
   32.6904     32.54     31.68    -20.66     20.00
   32.7006     31.83     31.68    -21.37     20.00
   32.7107     32.59     31.68    -20.62     20.00
   32.7209     32.51     31.68    -20.70     20.00
   32.7311     32.71     31.69    -20.50     20.00
   32.7412     32.43     31.69    -20.78     20.00
   32.7514     32.12     31.69    -21.10     20.00
   32.7615     32.37     31.69    -20.85     20.00
   32.7717     32.13     31.70    -21.09     20.00
   32.7819     31.65     31.70    -21.57     20.00
   32.7920     31.74     31.70    -21.48     20.00
   32.8022     33.17     31.70    -20.06     20.00
   32.8124     32.60     31.70    -20.63     20.00
   32.8225     32.34     31.71    -20.89     20.00
   32.8327     32.98     31.71    -20.25     20.00
   32.8429     31.87     31.71    -21.36     20.00
   32.8530     31.82     31.71    -21.42     20.00
   32.8632     32.35     31.71    -20.89     20.00
   32.8734     32.32     31.71    -20.92     20.00
   32.8835     32.13     31.72    -21.11     20.00
   32.8937     32.84     31.72    -20.40     20.00
   32.9039     32.45     31.72    -20.79     20.00
   32.9140     32.05     31.72    -21.19     20.00
   32.9242     32.80     31.72    -20.44     20.00
   32.9343     32.58     31.72    -20.66     20.00
   32.9445     32.35     31.72    -20.89     20.00
   32.9547     31.84     31.72    -21.40     20.00
   32.9648     31.66     31.72    -21.58     20.00
   32.9750     31.96     31.72    -21.28     20.00
   32.9852     32.24     31.72    -21.00     20.00
   32.9953     32.63     31.72    -20.61     20.00
   33.0055     31.90     31.72    -21.34     20.00
   33.0157     33.84     31.71    -19.40     20.00
   33.0258     32.24     31.71    -21.00     20.00
   33.0360     31.79     31.71    -21.45     20.00
   33.0462     32.26     31.71    -20.97     20.00
   33.0563     32.68     31.71    -20.55     20.00
   33.0665     32.93     31.70    -20.30     20.00
   33.0766     33.02     31.70    -20.20     20.00
   33.0868     32.80     31.70    -20.42     20.00
   33.0970     32.18     31.69    -21.04     20.00
   33.1071     32.60     31.69    -20.61     20.00
   33.1173     32.45     31.69    -20.76     20.00
   33.1275     32.61     31.68    -20.59     20.00
   33.1376     32.49     31.68    -20.71     20.00
   33.1478     32.82     31.67    -20.37     20.00
   33.1580     32.54     31.66    -20.65     20.00
   33.1681     32.09     31.66    -21.09     20.00
   33.1783     32.70     31.65    -20.48     20.00
   33.1885     31.80     31.65    -21.37     20.00
   33.1986     32.55     31.64    -20.61     20.00
   33.2088     33.11     31.63    -20.05     20.00
   33.2189     32.95     31.62    -20.20     20.00
   33.2291     32.38     31.62    -20.76     20.00
   33.2393     32.12     31.61    -21.01     20.00
   33.2494     32.43     31.60    -20.69     20.00
   33.2596     32.71     31.59    -20.40     20.00
   33.2698     32.87     31.58    -20.23     20.00
   33.2799     32.09     31.57    -21.00     20.00
   33.2901     32.89     31.56    -20.19     20.00
   33.3003     33.27     31.55    -19.80     20.00
   33.3104     32.82     31.54    -20.24     20.00
   33.3206     32.76     31.52    -20.29     20.00
   33.3308     33.02     31.51    -20.02     20.00
   33.3409     32.29     31.50    -20.73     20.00
   33.3511     34.15     31.49    -18.86     20.00
   33.3613     32.77     31.47    -20.23     20.00
   33.3714     32.10     31.46    -20.88     20.00
   33.3816     31.98     31.45    -20.99     20.00
   33.3917     32.34     31.43    -20.61     20.00
   33.4019     32.66     31.42    -20.28     20.00
   33.4121     32.73     31.40    -20.19     20.00
   33.4222     32.02     31.38    -20.89     20.00
   33.4324     32.60     31.37    -20.29     20.00
   33.4426     33.35     31.35    -19.53     20.00
   33.4527     32.38     31.33    -20.48     20.00
   33.4629     32.27     31.32    -20.57     20.00
   33.4731     32.18     31.30    -20.64     20.00
   33.4832     31.58     31.28    -21.22     20.00
   33.4934     32.45     31.26    -20.34     20.00
   33.5036     31.91     31.24    -20.86     20.00
   33.5137     33.15     31.22    -19.60     20.00
   33.5239     31.71     31.20    -21.02     20.00
   33.5340     31.95     31.18    -20.76     20.00
   33.5442     32.48     31.16    -20.21     20.00
   33.5544     30.66     31.14    -22.01     20.00
   33.5645     31.59     31.12    -21.05     20.00
   33.5747     31.87     31.10    -20.75     20.00
   33.5849     31.99     31.08    -20.61     20.00
   33.5950     31.70     31.05    -20.88     20.00
   33.6052     31.51     31.03    -21.04     20.00
   33.6154     31.49     31.01    -21.04     20.00
   33.6255     32.04     30.98    -20.47     20.00
   33.6357     30.71     30.96    -21.77     20.00
   33.6459     31.13     30.94    -21.33     20.00
   33.6560     31.25     30.91    -21.19     20.00
   33.6662     31.31     30.89    -21.10     20.00
   33.6764     31.70     30.86    -20.68     20.00
   33.6865     30.92     30.84    -21.44     20.00
   33.6967     31.12     30.81    -21.21     20.00
   33.7068     30.94     30.78    -21.37     20.00
   33.7170     31.34     30.76    -20.94     20.00
   33.7272     30.85     30.73    -21.40     20.00
   33.7373     28.79     30.70    -23.44     20.00
   33.7475     30.97     30.68    -21.23     20.00
   33.7577     30.43     30.65    -21.74     20.00
   33.7678     30.04     30.62    -22.10     20.00
   33.7780     30.70     30.59    -21.42     20.00
   33.7882     29.52     30.56    -22.57     20.00
   33.7983     29.59     30.53    -22.47     20.00
   33.8085     30.41     30.50    -21.62     20.00
   33.8187     30.22     30.48    -21.78     20.00
   33.8288     30.10     30.45    -21.87     20.00
   33.8390     30.16     30.42    -21.78     20.00
   33.8491     29.71     30.39    -22.20     20.00
   33.8593     29.49     30.36    -22.39     20.00
   33.8695     29.42     30.33    -22.43     20.00
   33.8796     29.31     30.30    -22.51     20.00
   33.8898     29.07     30.26    -22.72     20.00
   33.9000     29.15     30.23    -22.61     20.00
   33.9101     28.91     30.20    -22.82     20.00
   33.9203     29.32     30.17    -22.37     20.00
   33.9305     28.84     30.14    -22.82     20.00
   33.9406     29.54     30.11    -22.09     20.00
   33.9508     28.44     30.08    -23.16     20.00
   33.9610     28.74     30.04    -22.83     20.00
   33.9711     29.06     30.01    -22.48     20.00
   33.9813     28.90     29.98    -22.60     20.00
   33.9915     28.65     29.95    -22.82     20.00
   34.0016     28.62     29.91    -22.82     20.00
   34.0118     28.60     29.88    -22.81     20.00
   34.0219     28.61     29.85    -22.76     20.00
   34.0321     29.12     29.82    -22.22     20.00
   34.0423     28.43     29.78    -22.88     20.00
   34.0524     28.37     29.75    -22.90     20.00
   34.0626     28.50     29.72    -22.74     20.00
   34.0728     28.98     29.68    -22.23     20.00
   34.0829     28.00     29.65    -23.17     20.00
   34.0931     28.94     29.62    -22.20     20.00
   34.1033     27.64     29.58    -23.47     20.00
   34.1134     28.24     29.55    -22.83     20.00
   34.1236     28.52     29.52    -22.52     20.00
   34.1338     27.97     29.48    -23.04     20.00
   34.1439     28.62     29.45    -22.35     20.00
   34.1541     27.71     29.41    -23.23     20.00
   34.1642     27.85     29.38    -23.05     20.00
   34.1744     28.10     29.35    -22.77     20.00
   34.1846     27.59     29.31    -23.25     20.00
   34.1947     26.90     29.28    -23.90     20.00
   34.2049     27.04     29.25    -23.73     20.00
   34.2151     27.85     29.21    -22.89     20.00
   34.2252     27.40     29.18    -23.30     20.00
   34.2354     28.05     29.14    -22.62     20.00
   34.2456     27.44     29.11    -23.19     20.00
   34.2557     27.47     29.08    -23.13     20.00
   34.2659     27.38     29.04    -23.19     20.00
   34.2761     27.95     29.01    -22.58     20.00
   34.2862     27.15     28.97    -23.35     20.00
   34.2964     27.34     28.94    -23.12     20.00
   34.3066     27.51     28.91    -22.92     20.00
   34.3167     27.35     28.87    -23.05     20.00
   34.3269     27.66     28.84    -22.70     20.00
   34.3370     27.37     28.80    -22.96     20.00
   34.3472     27.22     28.77    -23.08     20.00
   34.3574     27.35     28.74    -22.91     20.00
   34.3675     27.33     28.70    -22.90     20.00
   34.3777     26.89     28.67    -23.30     20.00
   34.3879     27.38     28.64    -22.78     20.00
   34.3980     27.43     28.60    -22.70     20.00
   34.4082     27.45     28.57    -22.64     20.00
   34.4184     26.43     28.54    -23.63     20.00
   34.4285     26.30     28.50    -23.73     20.00
   34.4387     26.73     28.47    -23.26     20.00
   34.4489     26.78     28.44    -23.18     20.00
   34.4590     27.84     28.40    -22.09     20.00
   34.4692     26.67     28.37    -23.23     20.00
   34.4793     27.31     28.34    -22.55     20.00
   34.4895     26.22     28.31    -23.61     20.00
   34.4997     26.21     28.27    -23.59     20.00
   34.5098     27.99     28.24    -21.77     20.00
   34.5200     26.83     28.21    -22.90     20.00
   34.5302     26.98     28.18    -22.72     20.00
   34.5403     26.89     28.14    -22.78     20.00
   34.5505     26.51     28.11    -23.13     20.00
   34.5607     26.37     28.08    -23.23     20.00
   34.5708     26.08     28.05    -23.49     20.00
   34.5810     26.76     28.02    -22.78     20.00
   34.5912     27.24     27.98    -22.27     20.00
   34.6013     26.32     27.95    -23.16     20.00
   34.6115     25.93     27.92    -23.51     20.00
   34.6217     27.23     27.89    -22.18     20.00
   34.6318     26.44     27.86    -22.94     20.00
   34.6420     26.94     27.83    -22.41     20.00
   34.6521     26.80     27.80    -22.52     20.00
   34.6623     25.91     27.76    -23.38     20.00
   34.6725     26.34     27.73    -22.92     20.00
   34.6826     26.10     27.70    -23.13     20.00
   34.6928     26.02     27.67    -23.18     20.00
   34.7030     26.10     27.64    -23.07     20.00
   34.7131     26.81     27.61    -22.33     20.00
   34.7233     26.52     27.58    -22.59     20.00
   34.7335     26.67     27.55    -22.41     20.00
   34.7436     26.84     27.52    -22.21     20.00
   34.7538     26.30     27.49    -22.72     20.00
   34.7640     26.40     27.46    -22.59     20.00
   34.7741     26.32     27.43    -22.64     20.00
   34.7843     26.38     27.40    -22.55     20.00
   34.7944     26.47     27.37    -22.43     20.00
   34.8046     26.54     27.34    -22.33     20.00
   34.8148     26.04     27.32    -22.80     20.00
   34.8249     25.77     27.29    -23.04     20.00
   34.8351     26.29     27.26    -22.49     20.00
   34.8453     26.22     27.23    -22.53     20.00
   34.8554     26.31     27.20    -22.42     20.00
   34.8656     26.28     27.17    -22.42     20.00
   34.8758     25.73     27.15    -22.94     20.00
   34.8859     26.09     27.12    -22.55     20.00
   34.8961     26.10     27.09    -22.51     20.00
   34.9063     26.38     27.06    -22.21     20.00
   34.9164     26.87     27.03    -21.69     20.00
   34.9266     25.48     27.01    -23.05     20.00
   34.9367     25.95     26.98    -22.55     20.00
   34.9469     26.52     26.95    -21.96     20.00
   34.9571     26.40     26.93    -22.05     20.00
   34.9672     26.34     26.90    -22.08     20.00
   34.9774     25.80     26.87    -22.60     20.00
   34.9876     26.40     26.85    -21.97     20.00
   34.9977     26.15     26.82    -22.19     20.00
   35.0079     25.19     26.79    -23.13     20.00
   35.0181     25.64     26.77    -22.65     20.00
   35.0282     25.80     26.74    -22.47     20.00
   35.0384     25.99     26.72    -22.25     20.00
   35.0486     26.05     26.69    -22.17     20.00
   35.0587     26.10     26.67    -22.09     20.00
   35.0689     26.05     26.64    -22.12     20.00
   35.0791     25.16     26.62    -22.98     20.00
   35.0892     25.52     26.59    -22.60     20.00
   35.0994     25.84     26.57    -22.25     20.00
   35.1095     26.22     26.54    -21.85     20.00
   35.1197     26.07     26.52    -21.97     20.00
   35.1299     25.22     26.49    -22.80     20.00
   35.1400     25.82     26.47    -22.17     20.00
   35.1502     25.55     26.45    -22.42     20.00
   35.1604     25.68     26.42    -22.27     20.00
   35.1705     26.04     26.40    -21.88     20.00
   35.1807     25.95     26.38    -21.95     20.00
   35.1909     25.69     26.35    -22.19     20.00
   35.2010     25.34     26.33    -22.51     20.00
   35.2112     25.26     26.31    -22.57     20.00
   35.2214     25.34     26.28    -22.47     20.00
   35.2315     25.51     26.26    -22.27     20.00
   35.2417     25.89     26.24    -21.87     20.00
   35.2518     24.88     26.22    -22.86     20.00
   35.2620     25.07     26.19    -22.65     20.00
   35.2722     25.68     26.17    -22.02     20.00
   35.2823     24.95     26.15    -22.72     20.00
   35.2925     25.54     26.13    -22.11     20.00
   35.3027     26.43     26.11    -21.20     20.00
   35.3128     25.09     26.08    -22.52     20.00
   35.3230     24.85     26.06    -22.74     20.00
   35.3332     25.51     26.04    -22.06     20.00
   35.3433     25.87     26.02    -21.68     20.00
   35.3535     26.02     26.00    -21.50     20.00
   35.3637     25.87     25.98    -21.63     20.00
   35.3738     25.90     25.96    -21.58     20.00
   35.3840     25.23     25.94    -22.23     20.00
   35.3942     25.16     25.92    -22.28     20.00
   35.4043     24.91     25.90    -22.51     20.00
   35.4145     25.05     25.88    -22.35     20.00
   35.4246     24.84     25.86    -22.54     20.00
   35.4348     25.44     25.84    -21.92     20.00
   35.4450     26.05     25.82    -21.29     20.00
   35.4551     25.58     25.80    -21.74     20.00
   35.4653     24.86     25.78    -22.45     20.00
   35.4755     25.78     25.76    -21.51     20.00
   35.4856     24.32     25.74    -22.95     20.00
   35.4958     25.47     25.72    -21.78     20.00
   35.5060     25.10     25.71    -22.13     20.00
   35.5161     25.52     25.69    -21.69     20.00
   35.5263     25.51     25.67    -21.68     20.00
   35.5365     25.24     25.65    -21.93     20.00
   35.5466     25.04     25.63    -22.12     20.00
   35.5568     25.13     25.61    -22.01     20.00
   35.5669     24.76     25.60    -22.36     20.00
   35.5771     25.55     25.58    -21.55     20.00
   35.5873     25.56     25.56    -21.53     20.00
   35.5974     24.57     25.54    -22.50     20.00
   35.6076     24.26     25.53    -22.79     20.00
   35.6178     25.01     25.51    -22.02     20.00
   35.6279     25.24     25.49    -21.78     20.00
   35.6381     24.82     25.48    -22.18     20.00
   35.6483     24.84     25.46    -22.14     20.00
   35.6584     24.91     25.44    -22.06     20.00
   35.6686     25.80     25.43    -21.15     20.00
   35.6788     25.32     25.41    -21.61     20.00
   35.6889     25.45     25.39    -21.47     20.00
   35.6991     24.70     25.38    -22.20     20.00
   35.7093     25.28     25.36    -21.61     20.00
   35.7194     25.17     25.35    -21.70     20.00
   35.7296     25.05     25.33    -21.80     20.00
   35.7397     25.35     25.31    -21.49     20.00
   35.7499     24.95     25.30    -21.87     20.00
   35.7601     25.67     25.28    -21.14     20.00
   35.7702     25.46     25.27    -21.33     20.00
   35.7804     24.35     25.25    -22.43     20.00
   35.7906     24.98     25.24    -21.78     20.00
   35.8007     24.20     25.22    -22.55     20.00
   35.8109     24.71     25.21    -22.02     20.00
   35.8211     24.99     25.19    -21.73     20.00
   35.8312     24.86     25.18    -21.84     20.00
   35.8414     24.09     25.16    -22.60     20.00
   35.8516     25.20     25.15    -21.47     20.00
   35.8617     25.63     25.14    -21.03     20.00
   35.8719     25.03     25.12    -21.62     20.00
   35.8820     24.91     25.11    -21.72     20.00
   35.8922     24.87     25.09    -21.75     20.00
   35.9024     24.99     25.08    -21.61     20.00
   35.9125     24.74     25.07    -21.85     20.00
   35.9227     24.40     25.05    -22.18     20.00
   35.9329     24.49     25.04    -22.07     20.00
   35.9430     24.71     25.03    -21.84     20.00
   35.9532     25.55     25.01    -20.99     20.00
   35.9634     25.02     25.00    -21.50     20.00
   35.9735     25.09     24.99    -21.42     20.00
   35.9837     24.68     24.97    -21.82     20.00
   35.9939     24.55     24.96    -21.93     20.00
