 => TITLE: 
 => Data file name: C:\Users\stefano\Nextcloud2\uni\master-thesis\XRD\data\G308\G308--5-40-0.01-1000ms.xy
 => Instrm        :    1
 => Lambda(1&2)   :   1.54060  1.54060
 => Numb.of.points:      2951
 => Numb.of.peaks :         7
    2Theta     Yobs     Ycalc  Yobs-Ycal    Backg    Bragg     Posr  Intensity   FWHM    Eta
    6.0086     21.43     22.89    -29.42     20.00   18.4803     -4.22     129.79  0.8334  0.4439
    6.0187     21.21     22.90    -29.65     20.00   20.3669     -4.22      12.03  0.6341  0.4439
    6.0289     20.90     22.90    -29.96     20.00   22.3524     -4.22      73.28  1.0166  0.4439
    6.0391     21.38     22.91    -29.49     20.00   28.2292     -4.22      66.59  1.9752  0.4439
    6.0492     20.75     22.91    -30.12     20.00   29.9603     -4.22      35.80  2.3048  0.4439
    6.0594     21.27     22.92    -29.61     20.00   33.1193     -4.22      28.90  2.3048  0.4439
    6.0696     21.48     22.92    -29.40     20.00   19.5649     -4.22    1133.61  8.8425  0.3398
    6.0797     21.33     22.93    -29.56     20.00
    6.0899     20.87     22.93    -30.02     20.00
    6.1001     21.26     22.94    -29.64     20.00
    6.1102     20.88     22.94    -30.02     20.00
    6.1204     21.79     22.95    -29.12     20.00
    6.1306     21.07     22.95    -29.84     20.00
    6.1407     20.57     22.96    -30.35     20.00
    6.1509     21.24     22.96    -29.68     20.00
    6.1611     21.07     22.97    -29.86     20.00
    6.1712     20.73     22.97    -30.20     20.00
    6.1814     20.27     22.98    -30.67     20.00
    6.1915     20.98     22.98    -29.96     20.00
    6.2017     20.35     22.99    -30.60     20.00
    6.2119     20.54     22.99    -30.41     20.00
    6.2220     20.77     23.00    -30.19     20.00
    6.2322     20.90     23.00    -30.06     20.00
    6.2424     20.30     23.01    -30.67     20.00
    6.2525     20.74     23.01    -30.24     20.00
    6.2627     20.38     23.02    -30.60     20.00
    6.2729     20.59     23.02    -30.40     20.00
    6.2830     20.49     23.03    -30.50     20.00
    6.2932     20.24     23.04    -30.76     20.00
    6.3034     20.97     23.04    -30.03     20.00
    6.3135     20.55     23.05    -30.46     20.00
    6.3237     20.46     23.05    -30.55     20.00
    6.3338     20.75     23.06    -30.27     20.00
    6.3440     20.83     23.06    -30.19     20.00
    6.3542     20.77     23.07    -30.26     20.00
    6.3643     20.00     23.07    -31.04     20.00
    6.3745     20.24     23.08    -30.80     20.00
    6.3847     20.15     23.08    -30.90     20.00
    6.3948     20.09     23.09    -30.96     20.00
    6.4050     19.77     23.10    -31.29     20.00
    6.4152     19.82     23.10    -31.24     20.00
    6.4253     20.35     23.11    -30.72     20.00
    6.4355     20.16     23.11    -30.92     20.00
    6.4457     20.63     23.12    -30.45     20.00
    6.4558     20.85     23.12    -30.24     20.00
    6.4660     20.16     23.13    -30.93     20.00
    6.4762     20.45     23.14    -30.65     20.00
    6.4863     19.65     23.14    -31.45     20.00
    6.4965     19.70     23.15    -31.41     20.00
    6.5066     20.48     23.15    -30.64     20.00
    6.5168     19.70     23.16    -31.42     20.00
    6.5270     20.46     23.17    -30.67     20.00
    6.5371     20.62     23.17    -30.51     20.00
    6.5473     19.85     23.18    -31.29     20.00
    6.5575     20.11     23.18    -31.04     20.00
    6.5676     20.18     23.19    -30.97     20.00
    6.5778     20.79     23.20    -30.37     20.00
    6.5880     20.58     23.20    -30.58     20.00
    6.5981     20.50     23.21    -30.67     20.00
    6.6083     20.72     23.21    -30.46     20.00
    6.6185     20.69     23.22    -30.49     20.00
    6.6286     20.32     23.23    -30.87     20.00
    6.6388     20.70     23.23    -30.50     20.00
    6.6489     20.26     23.24    -30.94     20.00
    6.6591     20.68     23.25    -30.53     20.00
    6.6693     20.27     23.25    -30.94     20.00
    6.6794     20.20     23.26    -31.02     20.00
    6.6896     20.78     23.26    -30.45     20.00
    6.6998     19.52     23.27    -31.71     20.00
    6.7099     20.86     23.28    -30.38     20.00
    6.7201     20.26     23.28    -30.99     20.00
    6.7303     19.84     23.29    -31.41     20.00
    6.7404     20.06     23.30    -31.20     20.00
    6.7506     20.55     23.30    -30.72     20.00
    6.7608     20.61     23.31    -30.66     20.00
    6.7709     20.01     23.32    -31.27     20.00
    6.7811     20.93     23.32    -30.35     20.00
    6.7913     20.40     23.33    -30.89     20.00
    6.8014     20.37     23.34    -30.93     20.00
    6.8116     20.47     23.34    -30.83     20.00
    6.8217     21.04     23.35    -30.27     20.00
    6.8319     20.98     23.36    -30.34     20.00
    6.8421     20.45     23.36    -30.87     20.00
    6.8522     20.32     23.37    -31.01     20.00
    6.8624     21.52     23.38    -29.82     20.00
    6.8726     20.51     23.38    -30.84     20.00
    6.8827     20.66     23.39    -30.69     20.00
    6.8929     20.40     23.40    -30.96     20.00
    6.9031     21.44     23.40    -29.93     20.00
    6.9132     20.83     23.41    -30.54     20.00
    6.9234     21.24     23.42    -30.14     20.00
    6.9336     20.87     23.43    -30.52     20.00
    6.9437     20.69     23.43    -30.70     20.00
    6.9539     20.54     23.44    -30.86     20.00
    6.9640     20.54     23.45    -30.87     20.00
    6.9742     20.62     23.45    -30.80     20.00
    6.9844     20.05     23.46    -31.37     20.00
    6.9945     21.17     23.47    -30.26     20.00
    7.0047     21.46     23.47    -29.98     20.00
    7.0149     21.57     23.48    -29.87     20.00
    7.0250     20.04     23.49    -31.41     20.00
    7.0352     21.11     23.50    -30.35     20.00
    7.0454     20.49     23.50    -30.98     20.00
    7.0555     20.27     23.51    -31.20     20.00
    7.0657     21.18     23.52    -30.30     20.00
    7.0759     21.49     23.53    -30.00     20.00
    7.0860     21.00     23.53    -30.50     20.00
    7.0962     20.60     23.54    -30.90     20.00
    7.1064     21.12     23.55    -30.39     20.00
    7.1165     21.41     23.56    -30.11     20.00
    7.1267     21.15     23.56    -30.38     20.00
    7.1368     21.21     23.57    -30.32     20.00
    7.1470     20.24     23.58    -31.30     20.00
    7.1572     20.90     23.59    -30.65     20.00
    7.1673     21.04     23.60    -30.52     20.00
    7.1775     20.55     23.60    -31.01     20.00
    7.1877     20.88     23.61    -30.69     20.00
    7.1978     21.14     23.62    -30.44     20.00
    7.2080     20.09     23.63    -31.50     20.00
    7.2182     21.19     23.63    -30.41     20.00
    7.2283     22.31     23.64    -29.29     20.00
    7.2385     20.20     23.65    -31.41     20.00
    7.2487     21.12     23.66    -30.50     20.00
    7.2588     21.07     23.67    -30.56     20.00
    7.2690     21.20     23.67    -30.44     20.00
    7.2791     21.16     23.68    -30.48     20.00
    7.2893     21.88     23.69    -29.77     20.00
    7.2995     20.68     23.70    -30.98     20.00
    7.3096     20.76     23.71    -30.91     20.00
    7.3198     21.31     23.72    -30.37     20.00
    7.3300     21.79     23.72    -29.90     20.00
    7.3401     21.03     23.73    -30.66     20.00
    7.3503     21.41     23.74    -30.29     20.00
    7.3605     21.30     23.75    -30.41     20.00
    7.3706     21.80     23.76    -29.92     20.00
    7.3808     22.07     23.77    -29.66     20.00
    7.3910     21.46     23.78    -30.28     20.00
    7.4011     21.49     23.78    -30.26     20.00
    7.4113     21.70     23.79    -30.05     20.00
    7.4215     21.28     23.80    -30.48     20.00
    7.4316     21.38     23.81    -30.39     20.00
    7.4418     21.63     23.82    -30.15     20.00
    7.4519     21.77     23.83    -30.02     20.00
    7.4621     21.63     23.84    -30.17     20.00
    7.4723     21.30     23.85    -30.51     20.00
    7.4824     22.10     23.85    -29.72     20.00
    7.4926     21.85     23.86    -29.98     20.00
    7.5028     21.55     23.87    -30.28     20.00
    7.5129     21.81     23.88    -30.03     20.00
    7.5231     21.40     23.89    -30.45     20.00
    7.5333     21.12     23.90    -30.74     20.00
    7.5434     22.20     23.91    -29.67     20.00
    7.5536     21.63     23.92    -30.25     20.00
    7.5638     22.36     23.93    -29.53     20.00
    7.5739     22.37     23.94    -29.53     20.00
    7.5841     21.48     23.95    -30.43     20.00
    7.5942     22.00     23.96    -29.92     20.00
    7.6044     22.40     23.96    -29.53     20.00
    7.6146     22.17     23.97    -29.77     20.00
    7.6247     22.09     23.98    -29.86     20.00
    7.6349     21.99     23.99    -29.97     20.00
    7.6451     22.58     24.00    -29.39     20.00
    7.6552     22.58     24.01    -29.39     20.00
    7.6654     21.62     24.02    -30.36     20.00
    7.6756     22.07     24.03    -29.92     20.00
    7.6857     22.17     24.04    -29.83     20.00
    7.6959     21.89     24.05    -30.12     20.00
    7.7061     22.46     24.06    -29.56     20.00
    7.7162     22.99     24.07    -29.04     20.00
    7.7264     21.86     24.08    -30.18     20.00
    7.7365     22.22     24.09    -29.83     20.00
    7.7467     22.46     24.10    -29.60     20.00
    7.7569     20.98     24.11    -31.09     20.00
    7.7670     22.62     24.12    -29.46     20.00
    7.7772     22.96     24.13    -29.13     20.00
    7.7874     21.55     24.14    -30.55     20.00
    7.7975     23.54     24.15    -28.58     20.00
    7.8077     22.93     24.16    -29.20     20.00
    7.8179     21.80     24.17    -30.34     20.00
    7.8280     22.10     24.18    -30.05     20.00
    7.8382     22.43     24.20    -29.73     20.00
    7.8484     21.96     24.21    -30.21     20.00
    7.8585     22.22     24.22    -29.96     20.00
    7.8687     22.24     24.23    -29.95     20.00
    7.8789     22.77     24.24    -29.43     20.00
    7.8890     22.46     24.25    -29.75     20.00
    7.8992     22.70     24.26    -29.52     20.00
    7.9093     22.97     24.27    -29.26     20.00
    7.9195     22.55     24.28    -29.69     20.00
    7.9297     22.80     24.29    -29.45     20.00
    7.9398     22.15     24.30    -30.12     20.00
    7.9500     23.04     24.31    -29.24     20.00
    7.9602     23.09     24.33    -29.20     20.00
    7.9703     23.46     24.34    -28.84     20.00
    7.9805     22.63     24.35    -29.68     20.00
    7.9907     22.91     24.36    -29.41     20.00
    8.0008     22.86     24.37    -29.47     20.00
    8.0110     22.98     24.38    -29.36     20.00
    8.0212     23.02     24.39    -29.34     20.00
    8.0313     22.35     24.41    -30.02     20.00
    8.0415     22.69     24.42    -29.69     20.00
    8.0516     23.07     24.43    -29.32     20.00
    8.0618     23.30     24.44    -29.10     20.00
    8.0720     22.43     24.45    -29.98     20.00
    8.0821     23.34     24.46    -29.09     20.00
    8.0923     23.02     24.48    -29.42     20.00
    8.1025     22.66     24.49    -29.79     20.00
    8.1126     23.15     24.50    -29.31     20.00
    8.1228     23.92     24.51    -28.55     20.00
    8.1330     22.87     24.52    -29.62     20.00
    8.1431     23.21     24.54    -29.29     20.00
    8.1533     22.85     24.55    -29.66     20.00
    8.1635     23.50     24.56    -29.02     20.00
    8.1736     23.45     24.57    -29.09     20.00
    8.1838     23.82     24.59    -28.73     20.00
    8.1940     22.66     24.60    -29.90     20.00
    8.2041     24.24     24.61    -28.33     20.00
    8.2143     24.01     24.62    -28.58     20.00
    8.2244     23.20     24.64    -29.40     20.00
    8.2346     23.41     24.65    -29.20     20.00
    8.2448     23.67     24.66    -28.95     20.00
    8.2549     23.71     24.67    -28.93     20.00
    8.2651     23.23     24.69    -29.42     20.00
    8.2753     23.57     24.70    -29.09     20.00
    8.2854     24.33     24.71    -28.35     20.00
    8.2956     24.02     24.73    -28.67     20.00
    8.3058     23.29     24.74    -29.41     20.00
    8.3159     24.13     24.75    -28.59     20.00
    8.3261     23.97     24.77    -28.76     20.00
    8.3363     22.73     24.78    -30.01     20.00
    8.3464     24.18     24.79    -28.58     20.00
    8.3566     23.85     24.81    -28.92     20.00
    8.3667     23.49     24.82    -29.29     20.00
    8.3769     23.84     24.83    -28.96     20.00
    8.3871     24.18     24.85    -28.63     20.00
    8.3972     23.27     24.86    -29.55     20.00
    8.4074     24.20     24.88    -28.64     20.00
    8.4176     23.80     24.89    -29.05     20.00
    8.4277     24.02     24.90    -28.85     20.00
    8.4379     24.29     24.92    -28.59     20.00
    8.4481     23.99     24.93    -28.90     20.00
    8.4582     24.45     24.95    -28.46     20.00
    8.4684     25.30     24.96    -27.62     20.00
    8.4786     24.09     24.97    -28.85     20.00
    8.4887     23.49     24.99    -29.46     20.00
    8.4989     24.46     25.00    -28.51     20.00
    8.5091     23.80     25.02    -29.18     20.00
    8.5192     24.67     25.03    -28.32     20.00
    8.5294     24.85     25.05    -28.16     20.00
    8.5395     24.12     25.06    -28.90     20.00
    8.5497     24.93     25.08    -28.11     20.00
    8.5599     24.94     25.09    -28.11     20.00
    8.5700     25.29     25.11    -27.78     20.00
    8.5802     24.53     25.12    -28.55     20.00
    8.5904     24.05     25.14    -29.05     20.00
    8.6005     24.66     25.15    -28.45     20.00
    8.6107     24.95     25.17    -28.18     20.00
    8.6209     24.38     25.18    -28.77     20.00
    8.6310     25.18     25.20    -27.98     20.00
    8.6412     24.43     25.21    -28.75     20.00
    8.6514     24.37     25.23    -28.82     20.00
    8.6615     24.60     25.25    -28.61     20.00
    8.6717     24.45     25.26    -28.77     20.00
    8.6818     25.28     25.28    -27.96     20.00
    8.6920     24.98     25.29    -28.28     20.00
    8.7022     24.84     25.31    -28.43     20.00
    8.7123     25.39     25.33    -27.90     20.00
    8.7225     24.92     25.34    -28.38     20.00
    8.7327     24.57     25.36    -28.75     20.00
    8.7428     25.69     25.37    -27.65     20.00
    8.7530     25.14     25.39    -28.21     20.00
    8.7632     25.05     25.41    -28.32     20.00
    8.7733     25.02     25.42    -28.37     20.00
    8.7835     25.72     25.44    -27.68     20.00
    8.7937     25.11     25.46    -28.31     20.00
    8.8038     25.73     25.47    -27.71     20.00
    8.8140     25.23     25.49    -28.22     20.00
    8.8242     25.03     25.51    -28.44     20.00
    8.8343     25.95     25.53    -27.54     20.00
    8.8445     26.33     25.54    -27.17     20.00
    8.8546     25.51     25.56    -28.01     20.00
    8.8648     25.72     25.58    -27.82     20.00
    8.8750     25.96     25.59    -27.60     20.00
    8.8851     25.68     25.61    -27.89     20.00
    8.8953     25.95     25.63    -27.64     20.00
    8.9055     25.13     25.65    -28.48     20.00
    8.9156     25.41     25.67    -28.22     20.00
    8.9258     25.54     25.68    -28.11     20.00
    8.9360     25.32     25.70    -28.34     20.00
    8.9461     25.74     25.72    -27.94     20.00
    8.9563     26.46     25.74    -27.24     20.00
    8.9665     25.57     25.76    -28.15     20.00
    8.9766     26.10     25.77    -27.64     20.00
    8.9868     25.97     25.79    -27.78     20.00
    8.9969     26.23     25.81    -27.54     20.00
    9.0071     25.57     25.83    -28.22     20.00
    9.0173     26.15     25.85    -27.66     20.00
    9.0274     26.14     25.87    -27.69     20.00
    9.0376     25.92     25.89    -27.93     20.00
    9.0478     26.71     25.91    -27.16     20.00
    9.0579     27.16     25.92    -26.73     20.00
    9.0681     26.41     25.94    -27.50     20.00
    9.0783     26.74     25.96    -27.18     20.00
    9.0884     26.73     25.98    -27.21     20.00
    9.0986     26.13     26.00    -27.83     20.00
    9.1088     26.06     26.02    -27.92     20.00
    9.1189     26.71     26.04    -27.29     20.00
    9.1291     26.31     26.06    -27.71     20.00
    9.1393     26.67     26.08    -27.37     20.00
    9.1494     26.77     26.10    -27.29     20.00
    9.1596     25.77     26.12    -28.31     20.00
    9.1697     26.62     26.14    -27.48     20.00
    9.1799     27.04     26.16    -27.08     20.00
    9.1901     26.77     26.18    -27.37     20.00
    9.2002     25.83     26.20    -28.33     20.00
    9.2104     26.98     26.22    -27.20     20.00
    9.2206     26.45     26.24    -27.76     20.00
    9.2307     26.67     26.26    -27.56     20.00
    9.2409     26.04     26.29    -28.21     20.00
    9.2511     26.15     26.31    -28.12     20.00
    9.2612     27.74     26.33    -26.55     20.00
    9.2714     27.78     26.35    -26.53     20.00
    9.2816     26.76     26.37    -27.57     20.00
    9.2917     27.25     26.39    -27.10     20.00
    9.3019     27.10     26.41    -27.27     20.00
    9.3120     27.23     26.43    -27.17     20.00
    9.3222     28.32     26.46    -26.10     20.00
    9.3324     26.76     26.48    -27.68     20.00
    9.3425     27.41     26.50    -27.05     20.00
    9.3527     27.15     26.52    -27.33     20.00
    9.3629     26.62     26.54    -27.89     20.00
    9.3730     26.81     26.57    -27.72     20.00
    9.3832     27.17     26.59    -27.38     20.00
    9.3934     27.22     26.61    -27.35     20.00
    9.4035     27.26     26.63    -27.34     20.00
    9.4137     27.03     26.66    -27.59     20.00
    9.4239     27.30     26.68    -27.34     20.00
    9.4340     27.24     26.70    -27.42     20.00
    9.4442     27.05     26.73    -27.64     20.00
    9.4544     26.98     26.75    -27.73     20.00
    9.4645     27.04     26.77    -27.69     20.00
    9.4747     28.19     26.80    -26.57     20.00
    9.4848     27.85     26.82    -26.93     20.00
    9.4950     27.78     26.84    -27.03     20.00
    9.5052     27.91     26.87    -26.92     20.00
    9.5153     27.21     26.89    -27.64     20.00
    9.5255     28.05     26.92    -26.83     20.00
    9.5357     28.17     26.94    -26.73     20.00
    9.5458     28.54     26.96    -26.39     20.00
    9.5560     26.54     26.99    -28.41     20.00
    9.5662     27.24     27.01    -27.73     20.00
    9.5763     27.99     27.04    -27.01     20.00
    9.5865     28.57     27.06    -26.45     20.00
    9.5967     27.38     27.09    -27.67     20.00
    9.6068     27.96     27.11    -27.11     20.00
    9.6170     28.18     27.14    -26.92     20.00
    9.6271     28.91     27.16    -26.21     20.00
    9.6373     28.48     27.19    -26.67     20.00
    9.6475     27.14     27.21    -28.04     20.00
    9.6576     29.18     27.24    -26.02     20.00
    9.6678     28.80     27.26    -26.43     20.00
    9.6780     27.58     27.29    -27.67     20.00
    9.6881     28.90     27.32    -26.38     20.00
    9.6983     29.28     27.34    -26.02     20.00
    9.7085     28.60     27.37    -26.73     20.00
    9.7186     28.21     27.40    -27.15     20.00
    9.7288     27.98     27.42    -27.40     20.00
    9.7390     27.88     27.45    -27.53     20.00
    9.7491     29.15     27.48    -26.29     20.00
    9.7593     28.13     27.50    -27.33     20.00
    9.7694     28.91     27.53    -26.58     20.00
    9.7796     28.00     27.56    -27.52     20.00
    9.7898     29.23     27.58    -26.32     20.00
    9.7999     28.59     27.61    -26.98     20.00
    9.8101     28.91     27.64    -26.69     20.00
    9.8203     29.55     27.67    -26.08     20.00
    9.8304     28.34     27.69    -27.32     20.00
    9.8406     29.07     27.72    -26.61     20.00
    9.8508     28.55     27.75    -27.16     20.00
    9.8609     28.87     27.78    -26.87     20.00
    9.8711     28.93     27.81    -26.84     20.00
    9.8813     28.71     27.84    -27.09     20.00
    9.8914     28.74     27.86    -27.09     20.00
    9.9016     28.72     27.89    -27.14     20.00
    9.9118     29.47     27.92    -26.41     20.00
    9.9219     29.40     27.95    -26.51     20.00
    9.9321     29.64     27.98    -26.30     20.00
    9.9422     29.90     28.01    -26.07     20.00
    9.9524     28.91     28.04    -27.09     20.00
    9.9626     29.01     28.07    -27.02     20.00
    9.9727     29.56     28.10    -26.50     20.00
    9.9829     29.29     28.13    -26.80     20.00
    9.9931     29.63     28.16    -26.49     20.00
   10.0032     29.76     28.19    -26.39     20.00
   10.0134     29.96     28.22    -26.22     20.00
   10.0236     30.29     28.25    -25.92     20.00
   10.0337     29.54     28.28    -26.70     20.00
   10.0439     28.79     28.31    -27.48     20.00
   10.0541     28.95     28.34    -27.36     20.00
   10.0642     29.77     28.37    -26.57     20.00
   10.0744     29.48     28.41    -26.89     20.00
   10.0845     29.44     28.44    -26.96     20.00
   10.0947     29.48     28.47    -26.95     20.00
   10.1049     30.07     28.50    -26.39     20.00
   10.1150     30.55     28.53    -25.94     20.00
   10.1252     30.12     28.56    -26.41     20.00
   10.1354     28.99     28.60    -27.57     20.00
   10.1455     29.62     28.63    -26.97     20.00
   10.1557     29.55     28.66    -27.07     20.00
   10.1659     29.81     28.69    -26.85     20.00
   10.1760     30.56     28.73    -26.13     20.00
   10.1862     31.09     28.76    -25.63     20.00
   10.1964     29.93     28.79    -26.83     20.00
   10.2065     30.27     28.83    -26.52     20.00
   10.2167     30.24     28.86    -26.58     20.00
   10.2269     30.09     28.89    -26.77     20.00
   10.2370     30.40     28.93    -26.49     20.00
   10.2472     31.04     28.96    -25.88     20.00
   10.2573     30.93     29.00    -26.03     20.00
   10.2675     29.71     29.03    -27.28     20.00
   10.2777     30.75     29.07    -26.28     20.00
   10.2878     30.71     29.10    -26.35     20.00
   10.2980     30.84     29.13    -26.26     20.00
   10.3082     30.98     29.17    -26.15     20.00
   10.3183     30.35     29.20    -26.82     20.00
   10.3285     31.49     29.24    -25.71     20.00
   10.3387     30.26     29.28    -26.98     20.00
   10.3488     30.73     29.31    -26.54     20.00
   10.3590     31.29     29.35    -26.02     20.00
   10.3692     30.42     29.38    -26.92     20.00
   10.3793     29.93     29.42    -27.45     20.00
   10.3895     30.86     29.46    -26.56     20.00
   10.3996     30.62     29.49    -26.83     20.00
   10.4098     30.98     29.53    -26.51     20.00
   10.4200     30.65     29.57    -26.88     20.00
   10.4301     31.19     29.60    -26.37     20.00
   10.4403     31.77     29.64    -25.83     20.00
   10.4505     31.10     29.68    -26.54     20.00
   10.4606     31.24     29.71    -26.44     20.00
   10.4708     31.32     29.75    -26.39     20.00
   10.4810     31.63     29.79    -26.12     20.00
   10.4911     30.98     29.83    -26.81     20.00
   10.5013     30.89     29.87    -26.94     20.00
   10.5115     32.30     29.90    -25.57     20.00
   10.5216     31.32     29.94    -26.58     20.00
   10.5318     31.68     29.98    -26.26     20.00
   10.5420     31.32     30.02    -26.66     20.00
   10.5521     30.95     30.06    -27.07     20.00
   10.5623     31.33     30.10    -26.73     20.00
   10.5724     31.79     30.14    -26.31     20.00
   10.5826     31.83     30.18    -26.31     20.00
   10.5928     32.04     30.22    -26.14     20.00
   10.6029     32.38     30.26    -25.84     20.00
   10.6131     31.38     30.30    -26.88     20.00
   10.6233     32.38     30.34    -25.92     20.00
   10.6334     31.45     30.38    -26.89     20.00
   10.6436     32.14     30.42    -26.24     20.00
   10.6538     31.95     30.46    -26.47     20.00
   10.6639     31.47     30.50    -26.99     20.00
   10.6741     31.45     30.54    -27.06     20.00
   10.6843     31.97     30.59    -26.58     20.00
   10.6944     32.29     30.63    -26.30     20.00
   10.7046     32.77     30.67    -25.86     20.00
   10.7147     32.32     30.71    -26.35     20.00
   10.7249     31.91     30.75    -26.80     20.00
   10.7351     31.82     30.80    -26.94     20.00
   10.7452     32.22     30.84    -26.58     20.00
   10.7554     32.50     30.88    -26.34     20.00
   10.7656     31.98     30.92    -26.91     20.00
   10.7757     32.97     30.97    -25.96     20.00
   10.7859     32.55     31.01    -26.42     20.00
   10.7961     32.67     31.05    -26.35     20.00
   10.8062     32.34     31.10    -26.72     20.00
   10.8164     32.71     31.14    -26.39     20.00
   10.8266     31.83     31.19    -27.32     20.00
   10.8367     32.42     31.23    -26.77     20.00
   10.8469     32.74     31.28    -26.50     20.00
   10.8571     32.30     31.32    -26.98     20.00
   10.8672     33.50     31.37    -25.83     20.00
   10.8774     32.56     31.41    -26.81     20.00
   10.8875     33.02     31.46    -26.40     20.00
   10.8977     32.97     31.50    -26.49     20.00
   10.9079     32.82     31.55    -26.69     20.00
   10.9180     33.71     31.59    -25.85     20.00
   10.9282     32.59     31.64    -27.01     20.00
   10.9384     32.88     31.69    -26.77     20.00
   10.9485     33.42     31.73    -26.28     20.00
   10.9587     33.74     31.78    -26.00     20.00
   10.9689     33.98     31.83    -25.81     20.00
   10.9790     32.98     31.87    -26.86     20.00
   10.9892     33.31     31.92    -26.57     20.00
   10.9994     33.43     31.97    -26.50     20.00
   11.0095     33.32     32.02    -26.66     20.00
   11.0197     34.07     32.07    -25.96     20.00
   11.0298     32.82     32.11    -27.26     20.00
   11.0400     33.40     32.16    -26.73     20.00
   11.0502     33.96     32.21    -26.21     20.00
   11.0603     32.76     32.26    -27.46     20.00
   11.0705     33.95     32.31    -26.32     20.00
   11.0807     34.30     32.36    -26.02     20.00
   11.0908     32.91     32.41    -27.46     20.00
   11.1010     34.58     32.46    -25.84     20.00
   11.1112     33.81     32.51    -26.66     20.00
   11.1213     34.10     32.56    -26.42     20.00
   11.1315     34.43     32.61    -26.14     20.00
   11.1417     33.80     32.66    -26.82     20.00
   11.1518     33.96     32.71    -26.71     20.00
   11.1620     35.07     32.76    -25.66     20.00
   11.1722     34.37     32.82    -26.41     20.00
   11.1823     34.18     32.87    -26.65     20.00
   11.1925     34.91     32.92    -25.97     20.00
   11.2026     34.15     32.97    -26.78     20.00
   11.2128     34.69     33.02    -26.29     20.00
   11.2230     34.10     33.08    -26.94     20.00
   11.2331     33.92     33.13    -27.17     20.00
   11.2433     34.20     33.18    -26.94     20.00
   11.2535     35.03     33.23    -26.17     20.00
   11.2636     34.12     33.29    -27.13     20.00
   11.2738     34.46     33.34    -26.84     20.00
   11.2840     34.45     33.40    -26.91     20.00
   11.2941     35.25     33.45    -26.16     20.00
   11.3043     35.48     33.50    -25.99     20.00
   11.3145     34.86     33.56    -26.66     20.00
   11.3246     34.88     33.61    -26.70     20.00
   11.3348     34.48     33.67    -27.15     20.00
   11.3449     34.06     33.72    -27.63     20.00
   11.3551     35.77     33.78    -25.97     20.00
   11.3653     35.91     33.84    -25.89     20.00
   11.3754     35.18     33.89    -26.67     20.00
   11.3856     36.01     33.95    -25.90     20.00
   11.3958     35.58     34.00    -26.39     20.00
   11.4059     35.90     34.06    -26.12     20.00
   11.4161     35.29     34.12    -26.79     20.00
   11.4263     34.93     34.18    -27.21     20.00
   11.4364     36.10     34.23    -26.09     20.00
   11.4466     35.50     34.29    -26.75     20.00
   11.4568     34.99     34.35    -27.32     20.00
   11.4669     35.13     34.41    -27.24     20.00
   11.4771     35.38     34.46    -27.05     20.00
   11.4873     35.73     34.52    -26.76     20.00
   11.4974     36.32     34.58    -26.22     20.00
   11.5076     35.88     34.64    -26.72     20.00
   11.5177     35.24     34.70    -27.42     20.00
   11.5279     35.76     34.76    -26.96     20.00
   11.5381     37.09     34.82    -25.69     20.00
   11.5482     35.73     34.88    -27.11     20.00
   11.5584     35.21     34.94    -27.69     20.00
   11.5686     35.80     35.00    -27.16     20.00
   11.5787     37.02     35.06    -26.00     20.00
   11.5889     36.41     35.12    -26.68     20.00
   11.5991     36.32     35.19    -26.83     20.00
   11.6092     36.37     35.25    -26.84     20.00
   11.6194     35.84     35.31    -27.43     20.00
   11.6296     36.01     35.37    -27.32     20.00
   11.6397     36.41     35.43    -26.98     20.00
   11.6499     36.40     35.50    -27.06     20.00
   11.6600     37.21     35.56    -26.31     20.00
   11.6702     36.91     35.62    -26.67     20.00
   11.6804     37.37     35.69    -26.28     20.00
   11.6905     36.07     35.75    -27.64     20.00
   11.7007     36.46     35.81    -27.31     20.00
   11.7109     36.82     35.88    -27.02     20.00
   11.7210     38.03     35.94    -25.87     20.00
   11.7312     37.73     36.01    -26.24     20.00
   11.7414     37.29     36.07    -26.74     20.00
   11.7515     37.04     36.14    -27.06     20.00
   11.7617     38.21     36.20    -25.95     20.00
   11.7719     38.18     36.27    -26.05     20.00
   11.7820     37.05     36.33    -27.25     20.00
   11.7922     39.05     36.40    -25.31     20.00
   11.8023     37.43     36.47    -27.00     20.00
   11.8125     38.34     36.53    -26.15     20.00
   11.8227     38.00     36.60    -26.56     20.00
   11.8328     36.98     36.67    -27.65     20.00
   11.8430     37.60     36.73    -27.10     20.00
   11.8532     37.35     36.80    -27.41     20.00
   11.8633     38.17     36.87    -26.66     20.00
   11.8735     37.24     36.94    -27.66     20.00
   11.8837     38.66     37.01    -26.31     20.00
   11.8938     37.74     37.08    -27.30     20.00
   11.9040     38.01     37.15    -27.10     20.00
   11.9142     38.14     37.22    -27.04     20.00
   11.9243     38.04     37.28    -27.21     20.00
   11.9345     37.39     37.36    -27.93     20.00
   11.9447     37.60     37.43    -27.79     20.00
   11.9548     38.51     37.50    -26.95     20.00
   11.9650     38.81     37.57    -26.72     20.00
   11.9751     37.40     37.64    -28.20     20.00
   11.9853     38.15     37.71    -27.52     20.00
   11.9955     38.87     37.78    -26.87     20.00
   12.0056     38.03     37.85    -27.78     20.00
   12.0158     38.57     37.92    -27.32     20.00
   12.0260     38.36     38.00    -27.60     20.00
   12.0361     38.38     38.07    -27.65     20.00
   12.0463     38.99     38.14    -27.12     20.00
   12.0565     39.79     38.22    -26.39     20.00
   12.0666     38.73     38.29    -27.52     20.00
   12.0768     39.13     38.36    -27.20     20.00
   12.0870     39.30     38.44    -27.10     20.00
   12.0971     39.13     38.51    -27.34     20.00
   12.1073     39.32     38.59    -27.23     20.00
   12.1174     38.87     38.66    -27.75     20.00
   12.1276     39.48     38.74    -27.22     20.00
   12.1378     38.24     38.81    -28.53     20.00
   12.1479     39.34     38.89    -27.51     20.00
   12.1581     39.97     38.96    -26.96     20.00
   12.1683     39.95     39.04    -27.05     20.00
   12.1784     40.30     39.12    -26.78     20.00
   12.1886     39.88     39.19    -27.28     20.00
   12.1988     40.48     39.27    -26.75     20.00
   12.2089     39.74     39.35    -27.57     20.00
   12.2191     40.34     39.43    -27.05     20.00
   12.2293     40.67     39.51    -26.80     20.00
   12.2394     40.66     39.58    -26.89     20.00
   12.2496     40.76     39.66    -26.86     20.00
   12.2598     40.34     39.74    -27.36     20.00
   12.2699     41.18     39.82    -26.60     20.00
   12.2801     41.33     39.90    -26.53     20.00
   12.2902     40.23     39.98    -27.71     20.00
   12.3004     39.77     40.06    -28.25     20.00
   12.3106     40.90     40.14    -27.20     20.00
   12.3207     40.99     40.22    -27.19     20.00
   12.3309     40.91     40.30    -27.35     20.00
   12.3411     41.66     40.38    -26.69     20.00
   12.3512     40.12     40.46    -28.31     20.00
   12.3614     42.08     40.55    -26.43     20.00
   12.3716     41.43     40.63    -27.16     20.00
   12.3817     40.30     40.71    -28.37     20.00
   12.3919     41.95     40.79    -26.81     20.00
   12.4021     41.18     40.88    -27.66     20.00
   12.4122     41.41     40.96    -27.51     20.00
   12.4224     41.96     41.04    -27.05     20.00
   12.4325     40.81     41.13    -28.28     20.00
   12.4427     41.47     41.21    -27.70     20.00
   12.4529     42.27     41.30    -26.99     20.00
   12.4630     41.96     41.38    -27.38     20.00
   12.4732     41.38     41.47    -28.05     20.00
   12.4834     41.76     41.55    -27.75     20.00
   12.4935     41.94     41.64    -27.66     20.00
   12.5037     41.88     41.72    -27.81     20.00
   12.5139     42.32     41.81    -27.45     20.00
   12.5240     41.23     41.90    -28.63     20.00
   12.5342     41.42     41.98    -28.53     20.00
   12.5444     42.59     42.07    -27.44     20.00
   12.5545     42.30     42.16    -27.82     20.00
   12.5647     43.42     42.25    -26.79     20.00
   12.5749     42.85     42.33    -27.45     20.00
   12.5850     42.89     42.42    -27.49     20.00
   12.5952     42.44     42.51    -28.03     20.00
   12.6053     42.61     42.60    -27.95     20.00
   12.6155     42.49     42.69    -28.16     20.00
   12.6257     41.84     42.78    -28.90     20.00
   12.6358     42.47     42.87    -28.36     20.00
   12.6460     43.85     42.96    -27.07     20.00
   12.6562     42.38     43.05    -28.63     20.00
   12.6663     43.35     43.14    -27.75     20.00
   12.6765     42.75     43.23    -28.44     20.00
   12.6867     43.15     43.32    -28.14     20.00
   12.6968     44.29     43.42    -27.09     20.00
   12.7070     43.17     43.51    -28.30     20.00
   12.7172     43.01     43.60    -28.55     20.00
   12.7273     42.71     43.69    -28.94     20.00
   12.7375     43.38     43.79    -28.37     20.00
   12.7476     43.90     43.88    -27.94     20.00
   12.7578     42.77     43.97    -29.16     20.00
   12.7680     44.12     44.07    -27.91     20.00
   12.7781     43.46     44.16    -28.66     20.00
   12.7883     44.03     44.26    -28.19     20.00
   12.7985     44.04     44.35    -28.27     20.00
   12.8086     44.07     44.45    -28.34     20.00
   12.8188     43.30     44.54    -29.20     20.00
   12.8290     45.44     44.64    -27.16     20.00
   12.8391     45.16     44.73    -27.53     20.00
   12.8493     45.09     44.83    -27.70     20.00
   12.8595     44.68     44.93    -28.21     20.00
   12.8696     44.16     45.02    -28.82     20.00
   12.8798     45.12     45.12    -27.96     20.00
   12.8900     44.52     45.22    -28.66     20.00
   12.9001     44.66     45.32    -28.62     20.00
   12.9103     45.12     45.41    -28.26     20.00
   12.9204     45.14     45.51    -28.33     20.00
   12.9306     44.87     45.61    -28.70     20.00
   12.9408     45.65     45.71    -28.02     20.00
   12.9509     45.49     45.81    -28.28     20.00
   12.9611     46.15     45.91    -27.72     20.00
   12.9713     45.88     46.01    -28.09     20.00
   12.9814     45.64     46.11    -28.43     20.00
   12.9916     45.63     46.21    -28.54     20.00
   13.0018     45.63     46.31    -28.65     20.00
   13.0119     46.88     46.41    -27.50     20.00
   13.0221     46.12     46.52    -28.36     20.00
   13.0323     46.10     46.62    -28.48     20.00
   13.0424     46.54     46.72    -28.14     20.00
   13.0526     46.26     46.82    -28.53     20.00
   13.0627     46.47     46.93    -28.42     20.00
   13.0729     47.04     47.03    -27.95     20.00
   13.0831     46.66     47.13    -28.44     20.00
   13.0932     45.12     47.24    -30.08     20.00
   13.1034     47.11     47.34    -28.19     20.00
   13.1136     47.13     47.45    -28.28     20.00
   13.1237     47.29     47.55    -28.22     20.00
   13.1339     47.41     47.66    -28.21     20.00
   13.1441     47.19     47.76    -28.53     20.00
   13.1542     45.46     47.87    -30.37     20.00
   13.1644     46.93     47.97    -29.01     20.00
   13.1746     47.75     48.08    -28.29     20.00
   13.1847     47.00     48.19    -29.15     20.00
   13.1949     47.87     48.30    -28.39     20.00
   13.2051     48.40     48.40    -27.96     20.00
   13.2152     47.76     48.51    -28.71     20.00
   13.2254     48.15     48.62    -28.43     20.00
   13.2355     47.27     48.73    -29.42     20.00
   13.2457     49.08     48.84    -27.72     20.00
   13.2559     47.37     48.94    -29.54     20.00
   13.2660     48.54     49.05    -28.48     20.00
   13.2762     49.23     49.16    -27.90     20.00
   13.2864     47.77     49.27    -29.47     20.00
   13.2965     48.38     49.38    -28.97     20.00
   13.3067     47.55     49.49    -29.91     20.00
   13.3169     48.60     49.61    -28.97     20.00
   13.3270     49.68     49.72    -28.00     20.00
   13.3372     47.66     49.83    -30.13     20.00
   13.3474     49.20     49.94    -28.70     20.00
   13.3575     49.99     50.05    -28.02     20.00
   13.3677     48.18     50.17    -29.95     20.00
   13.3778     50.07     50.28    -28.17     20.00
   13.3880     49.76     50.39    -28.59     20.00
   13.3982     49.84     50.51    -28.63     20.00
   13.4083     49.60     50.62    -28.98     20.00
   13.4185     49.49     50.73    -29.21     20.00
   13.4287     50.36     50.85    -28.45     20.00
   13.4388     50.38     50.96    -28.54     20.00
   13.4490     49.26     51.08    -29.78     20.00
   13.4592     50.32     51.19    -28.84     20.00
   13.4693     50.57     51.31    -28.70     20.00
   13.4795     50.71     51.43    -28.68     20.00
   13.4897     50.85     51.54    -28.65     20.00
   13.4998     51.41     51.66    -28.21     20.00
   13.5100     50.48     51.78    -29.26     20.00
   13.5201     50.80     51.89    -29.05     20.00
   13.5303     51.06     52.01    -28.91     20.00
   13.5405     50.92     52.13    -29.17     20.00
   13.5506     51.10     52.25    -29.11     20.00
   13.5608     50.59     52.37    -29.74     20.00
   13.5710     52.30     52.49    -28.15     20.00
   13.5811     51.41     52.60    -29.16     20.00
   13.5913     50.91     52.72    -29.78     20.00
   13.6015     51.89     52.84    -28.92     20.00
   13.6116     51.45     52.96    -29.48     20.00
   13.6218     52.00     53.08    -29.05     20.00
   13.6320     51.31     53.21    -29.86     20.00
   13.6421     52.63     53.33    -28.66     20.00
   13.6523     52.20     53.45    -29.21     20.00
   13.6625     52.52     53.57    -29.01     20.00
   13.6726     52.34     53.69    -29.31     20.00
   13.6828     53.20     53.81    -28.58     20.00
   13.6929     52.12     53.94    -29.78     20.00
   13.7031     52.49     54.06    -29.53     20.00
   13.7133     53.14     54.18    -29.01     20.00
   13.7234     51.91     54.31    -30.36     20.00
   13.7336     53.04     54.43    -29.35     20.00
   13.7438     53.15     54.56    -29.37     20.00
   13.7539     53.16     54.68    -29.48     20.00
   13.7641     53.20     54.81    -29.57     20.00
   13.7743     54.19     54.93    -28.70     20.00
   13.7844     53.45     55.06    -29.57     20.00
   13.7946     54.07     55.18    -29.08     20.00
   13.8048     54.43     55.31    -28.84     20.00
   13.8149     52.96     55.44    -30.44     20.00
   13.8251     54.50     55.56    -29.02     20.00
   13.8352     54.67     55.69    -28.98     20.00
   13.8454     53.91     55.82    -29.87     20.00
   13.8556     55.40     55.95    -28.51     20.00
   13.8657     54.72     56.07    -29.31     20.00
   13.8759     55.06     56.20    -29.10     20.00
   13.8861     54.83     56.33    -29.46     20.00
   13.8962     55.10     56.46    -29.32     20.00
   13.9064     55.09     56.59    -29.46     20.00
   13.9166     53.99     56.72    -30.69     20.00
   13.9267     56.34     56.85    -28.47     20.00
   13.9369     54.73     56.98    -30.21     20.00
   13.9471     55.95     57.11    -29.12     20.00
   13.9572     55.71     57.24    -29.49     20.00
   13.9674     55.59     57.37    -29.74     20.00
   13.9776     55.48     57.50    -29.99     20.00
   13.9877     56.26     57.64    -29.34     20.00
   13.9979     54.70     57.77    -31.03     20.00
   14.0080     56.29     57.90    -29.57     20.00
   14.0182     56.05     58.03    -29.95     20.00
   14.0284     56.39     58.17    -29.74     20.00
   14.0385     55.52     58.30    -30.74     20.00
   14.0487     57.49     58.43    -28.91     20.00
   14.0589     57.12     58.57    -29.41     20.00
   14.0690     56.71     58.70    -29.95     20.00
   14.0792     56.11     58.84    -30.69     20.00
   14.0894     57.02     58.97    -29.91     20.00
   14.0995     56.35     59.11    -30.72     20.00
   14.1097     57.10     59.24    -30.10     20.00
   14.1199     57.34     59.38    -30.00     20.00
   14.1300     57.96     59.51    -29.52     20.00
   14.1402     58.80     59.65    -28.81     20.00
   14.1503     57.41     59.79    -30.34     20.00
   14.1605     58.46     59.93    -29.43     20.00
   14.1707     58.07     60.06    -29.96     20.00
   14.1808     58.41     60.20    -29.75     20.00
   14.1910     57.84     60.34    -30.46     20.00
   14.2012     59.50     60.48    -28.94     20.00
   14.2113     58.40     60.61    -30.18     20.00
   14.2215     60.10     60.75    -28.62     20.00
   14.2317     58.85     60.89    -30.01     20.00
   14.2418     59.04     61.03    -29.95     20.00
   14.2520     59.98     61.17    -29.15     20.00
   14.2622     58.83     61.31    -30.45     20.00
   14.2723     59.64     61.45    -29.78     20.00
   14.2825     59.43     61.59    -30.13     20.00
   14.2927     59.29     61.74    -30.41     20.00
   14.3028     60.11     61.88    -29.73     20.00
   14.3130     60.38     62.02    -29.60     20.00
   14.3231     60.50     62.16    -29.62     20.00
   14.3333     59.80     62.30    -30.46     20.00
   14.3435     61.24     62.44    -29.17     20.00
   14.3536     60.95     62.59    -29.60     20.00
   14.3638     60.48     62.73    -30.21     20.00
   14.3740     60.98     62.87    -29.86     20.00
   14.3841     60.18     63.02    -30.80     20.00
   14.3943     60.98     63.16    -30.14     20.00
   14.4045     60.93     63.31    -30.34     20.00
   14.4146     61.32     63.45    -30.09     20.00
   14.4248     61.91     63.59    -29.65     20.00
   14.4350     62.78     63.74    -28.92     20.00
   14.4451     61.09     63.88    -30.76     20.00
   14.4553     61.23     64.03    -30.76     20.00
   14.4654     61.38     64.18    -30.76     20.00
   14.4756     61.76     64.32    -30.52     20.00
   14.4858     61.87     64.47    -30.56     20.00
   14.4959     62.84     64.62    -29.74     20.00
   14.5061     63.16     64.76    -29.56     20.00
   14.5163     63.96     64.91    -28.91     20.00
   14.5264     62.41     65.06    -30.61     20.00
   14.5366     61.65     65.21    -31.52     20.00
   14.5468     63.06     65.35    -30.26     20.00
   14.5569     62.76     65.50    -30.70     20.00
   14.5671     62.63     65.65    -30.98     20.00
   14.5773     64.20     65.80    -29.56     20.00
   14.5874     64.03     65.95    -29.88     20.00
   14.5976     64.45     66.10    -29.61     20.00
   14.6078     63.73     66.25    -30.48     20.00
   14.6179     65.26     66.40    -29.10     20.00
   14.6281     64.07     66.55    -30.44     20.00
   14.6382     65.55     66.70    -29.11     20.00
   14.6484     64.09     66.85    -30.72     20.00
   14.6586     63.84     67.00    -31.12     20.00
   14.6687     64.96     67.15    -30.15     20.00
   14.6789     65.27     67.31    -30.00     20.00
   14.6891     65.54     67.46    -29.88     20.00
   14.6992     64.57     67.61    -31.00     20.00
   14.7094     66.06     67.76    -29.66     20.00
   14.7196     65.32     67.92    -30.56     20.00
   14.7297     65.87     68.07    -30.16     20.00
   14.7399     65.64     68.22    -30.54     20.00
   14.7501     65.49     68.38    -30.85     20.00
   14.7602     66.29     68.53    -30.20     20.00
   14.7704     65.98     68.68    -30.66     20.00
   14.7805     65.93     68.84    -30.87     20.00
   14.7907     66.48     68.99    -30.47     20.00
   14.8009     66.57     69.15    -30.54     20.00
   14.8110     67.70     69.30    -29.56     20.00
   14.8212     67.96     69.46    -29.46     20.00
   14.8314     67.12     69.61    -30.46     20.00
   14.8415     68.41     69.77    -29.32     20.00
   14.8517     66.90     69.92    -30.99     20.00
   14.8619     69.48     70.08    -28.56     20.00
   14.8720     66.12     70.24    -32.08     20.00
   14.8822     68.16     70.39    -30.20     20.00
   14.8924     68.59     70.55    -29.92     20.00
   14.9025     68.82     70.71    -29.85     20.00
   14.9127     70.25     70.87    -28.58     20.00
   14.9229     70.13     71.03    -28.86     20.00
   14.9330     69.07     71.18    -30.07     20.00
   14.9432     69.60     71.34    -29.70     20.00
   14.9533     69.65     71.50    -29.81     20.00
   14.9635     69.32     71.66    -30.30     20.00
   14.9737     70.43     71.82    -29.35     20.00
   14.9838     69.13     71.98    -30.81     20.00
   14.9940     69.49     72.14    -30.61     20.00
   15.0042     69.88     72.30    -30.38     20.00
   15.0143     69.90     72.46    -30.52     20.00
   15.0245     71.44     72.62    -29.14     20.00
   15.0347     69.75     72.78    -30.99     20.00
   15.0448     71.03     72.94    -29.87     20.00
   15.0550     70.82     73.10    -30.24     20.00
   15.0652     70.79     73.26    -30.43     20.00
   15.0753     70.20     73.42    -31.18     20.00
   15.0855     71.95     73.58    -29.60     20.00
   15.0956     71.79     73.75    -29.92     20.00
   15.1058     72.23     73.91    -29.64     20.00
   15.1160     72.52     74.07    -29.51     20.00
   15.1261     73.07     74.23    -29.12     20.00
   15.1363     72.89     74.40    -29.47     20.00
   15.1465     72.88     74.56    -29.64     20.00
   15.1566     72.34     74.72    -30.34     20.00
   15.1668     72.20     74.89    -30.65     20.00
   15.1770     73.44     75.05    -29.57     20.00
   15.1871     73.60     75.21    -29.58     20.00
   15.1973     73.30     75.38    -30.04     20.00
   15.2075     73.18     75.54    -30.33     20.00
   15.2176     73.07     75.71    -30.60     20.00
   15.2278     73.42     75.87    -30.41     20.00
   15.2380     73.47     76.04    -30.53     20.00
   15.2481     74.31     76.20    -29.85     20.00
   15.2583     75.62     76.37    -28.71     20.00
   15.2684     74.73     76.53    -29.76     20.00
   15.2786     73.90     76.70    -30.76     20.00
   15.2888     74.60     76.87    -30.23     20.00
   15.2989     75.69     77.03    -29.30     20.00
   15.3091     75.18     77.20    -29.98     20.00
   15.3193     73.45     77.37    -31.88     20.00
   15.3294     76.60     77.53    -28.89     20.00
   15.3396     76.13     77.70    -29.53     20.00
   15.3498     76.93     77.87    -28.90     20.00
   15.3599     76.60     78.03    -29.40     20.00
   15.3701     76.80     78.20    -29.36     20.00
   15.3803     76.51     78.37    -29.82     20.00
   15.3904     75.91     78.54    -30.59     20.00
   15.4006     76.19     78.71    -30.48     20.00
   15.4107     77.71     78.87    -29.13     20.00
   15.4209     76.88     79.04    -30.13     20.00
   15.4311     77.47     79.21    -29.70     20.00
   15.4412     77.42     79.38    -29.92     20.00
   15.4514     78.25     79.55    -29.26     20.00
   15.4616     77.21     79.72    -30.47     20.00
   15.4717     78.45     79.89    -29.40     20.00
   15.4819     79.24     80.06    -28.78     20.00
   15.4921     77.51     80.23    -30.68     20.00
   15.5022     77.84     80.40    -30.52     20.00
   15.5124     79.38     80.57    -29.15     20.00
   15.5226     77.47     80.74    -31.23     20.00
   15.5327     79.53     80.91    -29.34     20.00
   15.5429     78.22     81.08    -30.83     20.00
   15.5530     80.74     81.25    -28.48     20.00
   15.5632     79.62     81.43    -29.77     20.00
   15.5734     79.11     81.60    -30.45     20.00
   15.5835     79.63     81.77    -30.10     20.00
   15.5937     80.18     81.94    -29.72     20.00
   15.6039     80.05     82.11    -30.03     20.00
   15.6140     80.26     82.28    -29.99     20.00
   15.6242     81.57     82.46    -28.85     20.00
   15.6344     81.07     82.63    -29.52     20.00
   15.6445     82.01     82.80    -28.75     20.00
   15.6547     81.05     82.98    -29.89     20.00
   15.6649     81.78     83.15    -29.33     20.00
   15.6750     81.59     83.32    -29.69     20.00
   15.6852     81.12     83.50    -30.34     20.00
   15.6954     80.79     83.67    -30.84     20.00
   15.7055     82.23     83.84    -29.58     20.00
   15.7157     81.49     84.02    -30.49     20.00
   15.7258     81.20     84.19    -30.95     20.00
   15.7360     84.01     84.37    -28.32     20.00
   15.7462     82.96     84.54    -29.54     20.00
   15.7563     84.13     84.71    -28.55     20.00
   15.7665     85.56     84.89    -27.29     20.00
   15.7767     83.60     85.07    -29.43     20.00
   15.7868     85.01     85.24    -28.19     20.00
   15.7970     84.24     85.42    -29.14     20.00
   15.8072     84.95     85.59    -28.60     20.00
   15.8173     83.74     85.77    -29.99     20.00
   15.8275     84.79     85.94    -29.11     20.00
   15.8377     85.85     86.12    -28.23     20.00
   15.8478     87.30     86.29    -26.96     20.00
   15.8580     85.51     86.47    -28.92     20.00
   15.8681     85.90     86.65    -28.71     20.00
   15.8783     84.33     86.82    -30.45     20.00
   15.8885     86.24     87.00    -28.72     20.00
   15.8986     86.70     87.18    -28.44     20.00
   15.9088     87.02     87.35    -28.29     20.00
   15.9190     87.10     87.53    -28.39     20.00
   15.9291     87.37     87.71    -28.30     20.00
   15.9393     87.15     87.88    -28.70     20.00
   15.9495     87.09     88.06    -28.93     20.00
   15.9596     87.65     88.24    -28.55     20.00
   15.9698     86.34     88.42    -30.04     20.00
   15.9800     86.45     88.60    -30.11     20.00
   15.9901     88.15     88.77    -28.59     20.00
   16.0003     88.12     88.95    -28.79     20.00
   16.0105     88.85     89.13    -28.24     20.00
   16.0206     88.76     89.31    -28.51     20.00
   16.0308     89.18     89.49    -28.27     20.00
   16.0409     88.84     89.67    -28.79     20.00
   16.0511     89.30     89.84    -28.51     20.00
   16.0613     89.91     90.02    -28.08     20.00
   16.0714     89.34     90.20    -28.82     20.00
   16.0816     88.93     90.38    -29.41     20.00
   16.0918     91.13     90.56    -27.39     20.00
   16.1019     90.10     90.74    -28.60     20.00
   16.1121     90.69     90.92    -28.19     20.00
   16.1223     90.18     91.10    -28.88     20.00
   16.1324     92.68     91.28    -26.56     20.00
   16.1426     91.68     91.46    -27.74     20.00
   16.1528     91.43     91.64    -28.17     20.00
   16.1629     91.93     91.82    -27.85     20.00
   16.1731     92.24     92.00    -27.73     20.00
   16.1832     90.53     92.18    -29.62     20.00
   16.1934     91.59     92.36    -28.74     20.00
   16.2036     93.62     92.55    -26.89     20.00
   16.2137     93.23     92.73    -27.46     20.00
   16.2239     93.71     92.91    -27.16     20.00
   16.2341     91.92     93.09    -29.13     20.00
   16.2442     93.06     93.27    -28.17     20.00
   16.2544     94.15     93.45    -27.27     20.00
   16.2646     94.05     93.64    -27.55     20.00
   16.2747     92.89     93.82    -28.89     20.00
   16.2849     95.21     94.00    -26.75     20.00
   16.2951     95.33     94.18    -26.81     20.00
   16.3052     95.01     94.36    -27.32     20.00
   16.3154     95.82     94.55    -26.69     20.00
   16.3256     96.24     94.73    -26.45     20.00
   16.3357     94.09     94.91    -28.78     20.00
   16.3459     97.20     95.10    -25.86     20.00
   16.3560     98.60     95.28    -24.64     20.00
   16.3662     97.18     95.46    -26.24     20.00
   16.3764     96.12     95.65    -27.49     20.00
   16.3865     97.25     95.83    -26.54     20.00
   16.3967     96.23     96.01    -27.74     20.00
   16.4069     96.99     96.20    -27.17     20.00
   16.4170     99.36     96.38    -24.98     20.00
   16.4272     98.62     96.56    -25.91     20.00
   16.4374     98.69     96.75    -26.02     20.00
   16.4475     98.74     96.93    -26.16     20.00
   16.4577     98.77     97.12    -26.31     20.00
   16.4679     98.23     97.30    -27.04     20.00
   16.4780    101.35     97.49    -24.10     20.00
   16.4882     99.78     97.67    -25.86     20.00
   16.4983    100.10     97.86    -25.72     20.00
   16.5085    101.00     98.04    -25.01     20.00
   16.5187     99.55     98.23    -26.64     20.00
   16.5288    102.37     98.41    -24.01     20.00
   16.5390     99.35     98.60    -27.21     20.00
   16.5492    100.63     98.79    -26.12     20.00
   16.5593    102.18     98.97    -24.76     20.00
   16.5695    100.98     99.16    -26.14     20.00
   16.5797    101.52     99.35    -25.79     20.00
   16.5898    100.52     99.53    -26.98     20.00
   16.6000    102.59     99.72    -25.09     20.00
   16.6102    103.79     99.91    -24.08     20.00
   16.6203    102.38    100.10    -25.68     20.00
   16.6305    103.10    100.29    -25.15     20.00
   16.6407    103.62    100.47    -24.82     20.00
   16.6508    103.44    100.66    -25.18     20.00
   16.6610    103.71    100.85    -25.10     20.00
   16.6711    103.12    101.04    -25.88     20.00
   16.6813    103.15    101.23    -26.04     20.00
   16.6915    103.44    101.42    -25.94     20.00
   16.7016    105.87    101.61    -23.70     20.00
   16.7118    104.86    101.80    -24.90     20.00
   16.7220    105.39    101.99    -24.56     20.00
   16.7321    104.21    102.18    -25.93     20.00
   16.7423    105.72    102.37    -24.61     20.00
   16.7525    105.30    102.56    -25.22     20.00
   16.7626    105.91    102.75    -24.80     20.00
   16.7728    106.30    102.94    -24.60     20.00
   16.7830    108.03    103.13    -23.06     20.00
   16.7931    106.98    103.32    -24.30     20.00
   16.8033    106.49    103.52    -24.99     20.00
   16.8134    106.91    103.71    -24.76     20.00
   16.8236    106.27    103.90    -25.59     20.00
   16.8338    105.74    104.09    -26.32     20.00
   16.8439    108.09    104.29    -24.16     20.00
   16.8541    108.82    104.48    -23.62     20.00
   16.8643    108.34    104.68    -24.30     20.00
   16.8744    108.40    104.87    -24.43     20.00
   16.8846    109.76    105.07    -23.27     20.00
   16.8948    109.48    105.26    -23.74     20.00
   16.9049    108.93    105.46    -24.49     20.00
   16.9151    109.94    105.65    -23.68     20.00
   16.9253    110.36    105.85    -23.45     20.00
   16.9354    109.96    106.05    -24.05     20.00
   16.9456    109.87    106.25    -24.34     20.00
   16.9558    109.96    106.45    -24.45     20.00
   16.9659    110.63    106.64    -23.98     20.00
   16.9761    109.91    106.85    -24.90     20.00
   16.9862    110.35    107.04    -24.66     20.00
   16.9964    112.32    107.25    -22.89     20.00
   17.0066    110.09    107.45    -25.32     20.00
   17.0167    112.71    107.65    -22.90     20.00
   17.0269    112.38    107.85    -23.44     20.00
   17.0371    111.37    108.06    -24.65     20.00
   17.0472    113.76    108.26    -22.46     20.00
   17.0574    113.24    108.47    -23.19     20.00
   17.0676    111.79    108.68    -24.85     20.00
   17.0777    112.13    108.88    -24.71     20.00
   17.0879    114.46    109.09    -22.59     20.00
   17.0981    112.45    109.30    -24.81     20.00
   17.1082    114.04    109.51    -23.43     20.00
   17.1184    113.80    109.73    -23.89     20.00
   17.1285    113.90    109.94    -24.00     20.00
   17.1387    113.84    110.15    -24.28     20.00
   17.1489    115.57    110.37    -22.76     20.00
   17.1590    114.15    110.59    -24.40     20.00
   17.1692    114.01    110.81    -24.76     20.00
   17.1794    116.55    111.03    -22.44     20.00
   17.1895    115.55    111.25    -23.66     20.00
   17.1997    114.74    111.48    -24.70     20.00
   17.2099    116.22    111.71    -23.45     20.00
   17.2200    115.69    111.93    -24.21     20.00
   17.2302    116.22    112.17    -23.91     20.00
   17.2404    118.12    112.40    -22.25     20.00
   17.2505    117.42    112.64    -23.18     20.00
   17.2607    115.93    112.88    -24.91     20.00
   17.2709    118.38    113.12    -22.71     20.00
   17.2810    118.85    113.37    -22.48     20.00
   17.2912    118.15    113.62    -23.43     20.00
   17.3013    120.01    113.87    -21.82     20.00
   17.3115    117.87    114.13    -24.22     20.00
   17.3217    118.88    114.39    -23.48     20.00
   17.3318    119.90    114.66    -22.72     20.00
   17.3420    119.35    114.93    -23.54     20.00
   17.3522    121.12    115.21    -22.05     20.00
   17.3623    120.60    115.49    -22.85     20.00
   17.3725    120.09    115.78    -23.65     20.00
   17.3827    121.10    116.07    -22.93     20.00
   17.3928    121.05    116.37    -23.28     20.00
   17.4030    121.74    116.68    -22.90     20.00
   17.4132    123.04    116.99    -21.91     20.00
   17.4233    122.43    117.31    -22.84     20.00
   17.4335    122.45    117.64    -23.16     20.00
   17.4436    122.20    117.98    -23.74     20.00
   17.4538    124.99    118.33    -21.30     20.00
   17.4640    123.95    118.69    -22.70     20.00
   17.4741    124.24    119.05    -22.77     20.00
   17.4843    126.74    119.43    -20.65     20.00
   17.4945    126.16    119.82    -21.62     20.00
   17.5046    125.31    120.22    -22.87     20.00
   17.5148    126.99    120.63    -21.61     20.00
   17.5250    126.95    121.06    -22.07     20.00
   17.5351    127.63    121.50    -21.83     20.00
   17.5453    129.63    121.96    -20.29     20.00
   17.5555    126.82    122.43    -23.57     20.00
   17.5656    127.13    122.91    -23.74     20.00
   17.5758    128.13    123.42    -23.25     20.00
   17.5859    127.38    123.93    -24.51     20.00
   17.5961    130.12    124.47    -22.31     20.00
   17.6063    130.75    125.03    -22.24     20.00
   17.6164    131.20    125.60    -22.37     20.00
   17.6266    130.76    126.20    -23.41     20.00
   17.6368    132.17    126.83    -22.62     20.00
   17.6469    131.81    127.46    -23.62     20.00
   17.6571    130.73    128.13    -25.36     20.00
   17.6673    135.02    128.82    -21.76     20.00
   17.6774    135.00    129.53    -22.49     20.00
   17.6876    137.12    130.27    -21.12     20.00
   17.6978    135.29    131.04    -23.72     20.00
   17.7079    136.37    131.83    -23.43     20.00
   17.7181    136.75    132.66    -23.87     20.00
   17.7283    139.40    133.51    -22.08     20.00
   17.7384    140.42    134.39    -21.93     20.00
   17.7486    138.55    135.31    -24.72     20.00
   17.7587    140.59    136.25    -23.62     20.00
   17.7689    138.98    137.23    -26.21     20.00
   17.7791    139.76    138.24    -26.44     20.00
   17.7892    141.66    139.28    -25.58     20.00
   17.7994    142.75    140.36    -25.57     20.00
   17.8096    145.06    141.48    -24.38     20.00
   17.8197    144.91    142.63    -25.68     20.00
   17.8299    145.01    143.82    -26.77     20.00
   17.8401    148.35    145.05    -24.66     20.00
   17.8502    149.24    146.30    -25.02     20.00
   17.8604    148.15    147.61    -27.42     20.00
   17.8706    149.67    148.95    -27.24     20.00
   17.8807    151.06    150.32    -27.22     20.00
   17.8909    151.00    151.74    -28.70     20.00
   17.9010    151.63    153.18    -29.52     20.00
   17.9112    157.28    154.68    -25.37     20.00
   17.9214    155.31    156.22    -28.87     20.00
   17.9315    156.98    157.78    -28.77     20.00
   17.9417    161.48    159.40    -25.88     20.00
   17.9519    160.72    161.05    -28.30     20.00
   17.9620    160.20    162.73    -30.49     20.00
   17.9722    164.71    164.46    -27.71     20.00
   17.9824    164.18    166.23    -30.01     20.00
   17.9925    167.87    168.01    -28.10     20.00
   18.0027    168.79    169.85    -29.02     20.00
   18.0129    168.21    171.72    -31.47     20.00
   18.0230    169.70    173.61    -31.87     20.00
   18.0332    173.92    175.54    -29.58     20.00
   18.0434    173.15    177.51    -32.32     20.00
   18.0535    175.77    179.48    -31.68     20.00
   18.0637    178.71    181.51    -30.76     20.00
   18.0738    179.34    183.54    -32.16     20.00
   18.0840    180.74    185.61    -32.83     20.00
   18.0942    187.12    187.70    -28.55     20.00
   18.1043    184.40    189.80    -33.36     20.00
   18.1145    186.21    191.93    -33.68     20.00
   18.1247    190.82    194.07    -31.21     20.00
   18.1348    192.63    196.21    -31.54     20.00
   18.1450    194.24    198.37    -32.09     20.00
   18.1552    198.29    200.54    -30.22     20.00
   18.1653    198.63    202.70    -32.03     20.00
   18.1755    200.65    204.87    -32.18     20.00
   18.1857    205.32    207.04    -29.68     20.00
   18.1958    206.30    209.18    -30.85     20.00
   18.2060    207.85    211.34    -31.45     20.00
   18.2161    211.30    213.45    -30.11     20.00
   18.2263    213.47    215.57    -30.06     20.00
   18.2365    214.27    217.66    -31.36     20.00
   18.2466    219.74    219.71    -27.93     20.00
   18.2568    219.55    221.74    -30.15     20.00
   18.2670    221.66    223.74    -30.04     20.00
   18.2771    226.03    225.67    -27.61     20.00
   18.2873    227.05    227.58    -28.49     20.00
   18.2975    225.43    229.44    -31.97     20.00
   18.3076    233.04    231.22    -26.14     20.00
   18.3178    233.24    232.95    -27.68     20.00
   18.3280    236.82    234.62    -25.77     20.00
   18.3381    237.94    236.20    -26.23     20.00
   18.3483    241.18    237.72    -24.51     20.00
   18.3585    241.28    239.16    -25.84     20.00
   18.3686    246.12    240.50    -22.34     20.00
   18.3788    246.02    241.76    -23.70     20.00
   18.3889    246.02    242.91    -24.85     20.00
   18.3991    249.82    243.97    -22.11     20.00
   18.4093    248.49    244.93    -24.40     20.00
   18.4194    250.24    245.77    -23.49     20.00
   18.4296    253.87    246.51    -20.60     20.00
   18.4398    253.76    247.13    -21.33     20.00
   18.4499    253.30    247.63    -22.30     20.00
   18.4601    256.70    248.02    -19.29     20.00
   18.4703    256.71    248.29    -19.55     20.00
   18.4804    255.05    248.44    -21.36     20.00
   18.4906    256.93    248.47    -19.51     20.00
   18.5008    256.25    248.38    -20.09     20.00
   18.5109    253.25    248.17    -22.89     20.00
   18.5211    255.16    247.85    -20.65     20.00
   18.5312    253.82    247.41    -21.55     20.00
   18.5414    251.30    246.85    -23.51     20.00
   18.5516    254.34    246.18    -19.80     20.00
   18.5617    252.43    245.41    -20.94     20.00
   18.5719    249.05    244.53    -23.44     20.00
   18.5821    250.43    243.54    -21.08     20.00
   18.5922    247.95    242.48    -22.49     20.00
   18.6024    246.13    241.31    -23.14     20.00
   18.6126    244.87    240.05    -23.14     20.00
   18.6227    242.45    238.72    -24.23     20.00
   18.6329    240.91    237.31    -24.36     20.00
   18.6431    239.75    235.82    -24.03     20.00
   18.6532    237.36    234.28    -24.88     20.00
   18.6634    234.75    232.66    -25.87     20.00
   18.6736    234.48    230.98    -24.47     20.00
   18.6837    232.49    229.27    -24.75     20.00
   18.6939    228.08    227.50    -27.38     20.00
   18.7040    226.99    225.70    -26.67     20.00
   18.7142    225.60    223.85    -26.21     20.00
   18.7244    224.17    221.97    -25.76     20.00
   18.7345    219.04    220.07    -28.99     20.00
   18.7447    217.86    218.13    -28.24     20.00
   18.7549    214.49    216.18    -29.65     20.00
   18.7650    210.68    214.23    -31.51     20.00
   18.7752    210.59    212.24    -29.62     20.00
   18.7854    208.40    210.25    -29.82     20.00
   18.7955    207.16    208.28    -29.08     20.00
   18.8057    205.69    206.29    -28.56     20.00
   18.8159    201.71    204.30    -30.55     20.00
   18.8260    200.53    202.33    -29.76     20.00
   18.8362    197.03    200.35    -31.29     20.00
   18.8463    193.12    198.41    -33.25     20.00
   18.8565    192.05    196.46    -32.37     20.00
   18.8667    190.85    194.53    -31.64     20.00
   18.8768    189.33    192.63    -31.26     20.00
   18.8870    189.60    190.74    -29.10     20.00
   18.8972    185.99    188.87    -30.84     20.00
   18.9073    182.66    187.05    -32.35     20.00
   18.9175    183.85    185.23    -29.34     20.00
   18.9277    182.34    183.44    -29.06     20.00
   18.9378    179.51    181.70    -30.16     20.00
   18.9480    177.54    179.98    -30.40     20.00
   18.9582    175.55    178.29    -30.70     20.00
   18.9683    173.90    176.64    -30.71     20.00
   18.9785    175.16    175.02    -27.82     20.00
   18.9887    172.55    173.43    -28.84     20.00
   18.9988    170.05    171.90    -29.81     20.00
   19.0090    168.67    170.38    -29.68     20.00
   19.0191    169.79    168.92    -27.09     20.00
   19.0293    165.86    167.48    -29.59     20.00
   19.0395    166.94    166.09    -27.11     20.00
   19.0496    164.43    164.74    -28.27     20.00
   19.0598    164.29    163.42    -27.09     20.00
   19.0700    161.51    162.13    -28.59     20.00
   19.0801    159.58    160.90    -29.29     20.00
   19.0903    157.90    159.70    -29.76     20.00
   19.1005    161.05    158.53    -25.44     20.00
   19.1106    160.31    157.41    -25.07     20.00
   19.1208    157.49    156.32    -26.80     20.00
   19.1310    156.17    155.27    -27.06     20.00
   19.1411    156.85    154.27    -25.38     20.00
   19.1513    152.35    153.29    -28.90     20.00
   19.1614    153.32    152.35    -26.99     20.00
   19.1716    156.29    151.44    -23.12     20.00
   19.1818    151.99    150.57    -26.54     20.00
   19.1919    151.75    149.74    -25.95     20.00
   19.2021    151.37    148.93    -25.52     20.00
   19.2123    149.56    148.16    -26.56     20.00
   19.2224    149.08    147.42    -26.31     20.00
   19.2326    149.24    146.71    -25.43     20.00
   19.2428    145.35    146.03    -28.64     20.00
   19.2529    147.69    145.39    -25.66     20.00
   19.2631    147.43    144.76    -25.30     20.00
   19.2733    145.54    144.17    -26.59     20.00
   19.2834    146.61    143.60    -24.96     20.00
   19.2936    144.67    143.06    -26.35     20.00
   19.3038    143.98    142.54    -26.52     20.00
   19.3139    147.07    142.05    -22.94     20.00
   19.3241    143.54    141.58    -26.00     20.00
   19.3342    141.85    141.14    -27.25     20.00
   19.3444    143.77    140.71    -24.90     20.00
   19.3546    142.76    140.30    -25.50     20.00
   19.3647    141.95    139.92    -25.93     20.00
   19.3749    140.51    139.55    -27.00     20.00
   19.3851    140.58    139.20    -26.58     20.00
   19.3952    140.45    138.87    -26.39     20.00
   19.4054    140.18    138.56    -26.34     20.00
   19.4156    139.83    138.26    -26.39     20.00
   19.4257    140.57    137.98    -25.37     20.00
   19.4359    138.79    137.71    -26.88     20.00
   19.4461    141.37    137.46    -24.05     20.00
   19.4562    139.54    137.22    -25.64     20.00
   19.4664    139.90    136.99    -25.05     20.00
   19.4765    139.39    136.77    -25.35     20.00
   19.4867    137.96    136.57    -26.57     20.00
   19.4969    140.60    136.38    -23.74     20.00
   19.5070    137.98    136.20    -26.18     20.00
   19.5172    136.96    136.03    -27.03     20.00
   19.5274    136.59    135.86    -27.24     20.00
   19.5375    135.66    135.71    -28.02     20.00
   19.5477    134.85    135.57    -28.68     20.00
   19.5579    136.40    135.44    -27.00     20.00
   19.5680    136.82    135.31    -26.45     20.00
   19.5782    135.51    135.19    -27.65     20.00
   19.5884    136.65    135.08    -26.40     20.00
   19.5985    136.18    134.98    -26.77     20.00
   19.6087    135.34    134.89    -27.51     20.00
   19.6188    135.40    134.80    -27.37     20.00
   19.6290    135.29    134.72    -27.40     20.00
   19.6392    133.97    134.65    -28.64     20.00
   19.6493    135.81    134.59    -26.74     20.00
   19.6595    136.70    134.53    -25.79     20.00
   19.6697    135.65    134.48    -26.79     20.00
   19.6798    136.07    134.43    -26.32     20.00
   19.6900    135.19    134.39    -27.16     20.00
   19.7002    135.72    134.36    -26.60     20.00
   19.7103    134.32    134.34    -27.98     20.00
   19.7205    136.04    134.32    -26.24     20.00
   19.7307    135.07    134.31    -27.20     20.00
   19.7408    133.76    134.30    -28.51     20.00
   19.7510    135.90    134.31    -26.37     20.00
   19.7612    135.18    134.32    -27.10     20.00
   19.7713    133.80    134.34    -28.50     20.00
   19.7815    133.90    134.36    -28.42     20.00
   19.7916    134.18    134.39    -28.18     20.00
   19.8018    134.64    134.43    -27.76     20.00
   19.8120    135.46    134.48    -26.98     20.00
   19.8221    133.59    134.54    -28.91     20.00
   19.8323    136.55    134.60    -26.01     20.00
   19.8425    136.75    134.67    -25.89     20.00
   19.8526    134.49    134.75    -28.23     20.00
   19.8628    135.26    134.84    -27.55     20.00
   19.8730    135.26    134.94    -27.64     20.00
   19.8831    134.68    135.05    -28.33     20.00
   19.8933    135.73    135.16    -27.39     20.00
   19.9035    134.59    135.28    -28.66     20.00
   19.9136    136.22    135.41    -27.16     20.00
   19.9238    134.62    135.55    -28.90     20.00
   19.9339    137.62    135.70    -26.04     20.00
   19.9441    136.12    135.86    -27.70     20.00
   19.9543    137.80    136.03    -26.19     20.00
   19.9644    135.52    136.20    -28.64     20.00
   19.9746    137.38    136.38    -26.96     20.00
   19.9848    137.51    136.57    -27.03     20.00
   19.9949    137.12    136.77    -27.61     20.00
   20.0051    137.01    136.98    -27.93     20.00
   20.0153    137.49    137.19    -27.66     20.00
   20.0254    138.57    137.41    -26.80     20.00
   20.0356    137.79    137.64    -27.81     20.00
   20.0458    138.49    137.87    -27.34     20.00
   20.0559    137.68    138.11    -28.39     20.00
   20.0661    138.46    138.35    -27.85     20.00
   20.0763    140.43    138.60    -26.13     20.00
   20.0864    136.11    138.85    -30.70     20.00
   20.0966    137.37    139.11    -29.70     20.00
   20.1067    140.83    139.36    -26.50     20.00
   20.1169    138.92    139.62    -28.67     20.00
   20.1271    138.57    139.88    -29.28     20.00
   20.1372    138.04    140.14    -30.07     20.00
   20.1474    140.63    140.40    -27.73     20.00
   20.1576    140.88    140.66    -27.74     20.00
   20.1677    140.04    140.91    -28.83     20.00
   20.1779    141.45    141.16    -27.67     20.00
   20.1881    138.79    141.41    -30.58     20.00
   20.1982    139.50    141.64    -30.10     20.00
   20.2084    140.20    141.87    -29.63     20.00
   20.2186    138.59    142.09    -31.46     20.00
   20.2287    142.78    142.30    -27.48     20.00
   20.2389    141.62    142.50    -28.84     20.00
   20.2490    140.45    142.68    -30.19     20.00
   20.2592    141.16    142.85    -29.65     20.00
   20.2694    142.42    143.00    -28.54     20.00
   20.2795    141.20    143.13    -29.90     20.00
   20.2897    142.43    143.25    -28.78     20.00
   20.2999    141.87    143.34    -29.44     20.00
   20.3100    140.84    143.42    -30.54     20.00
   20.3202    143.61    143.47    -27.82     20.00
   20.3304    142.90    143.49    -28.56     20.00
   20.3405    141.92    143.50    -29.54     20.00
   20.3507    143.18    143.47    -28.26     20.00
   20.3609    142.58    143.43    -28.81     20.00
   20.3710    142.51    143.35    -28.81     20.00
   20.3812    144.87    143.26    -26.35     20.00
   20.3914    143.09    143.13    -28.01     20.00
   20.4015    141.04    142.99    -29.91     20.00
   20.4117    142.41    142.81    -28.37     20.00
   20.4218    143.62    142.62    -26.96     20.00
   20.4320    141.09    142.40    -29.27     20.00
   20.4422    140.01    142.16    -30.11     20.00
   20.4523    141.48    141.90    -28.38     20.00
   20.4625    141.74    141.62    -27.84     20.00
   20.4727    141.85    141.32    -27.43     20.00
   20.4828    142.23    141.01    -26.74     20.00
   20.4930    138.85    140.67    -29.79     20.00
   20.5032    141.62    140.33    -26.67     20.00
   20.5133    141.57    139.98    -26.37     20.00
   20.5235    138.29    139.61    -29.28     20.00
   20.5337    140.88    139.23    -26.31     20.00
   20.5438    138.74    138.85    -28.07     20.00
   20.5540    137.29    138.45    -29.12     20.00
   20.5641    141.04    138.06    -24.98     20.00
   20.5743    139.36    137.65    -26.25     20.00
   20.5845    138.48    137.24    -26.73     20.00
   20.5946    140.87    136.84    -23.93     20.00
   20.6048    138.68    136.43    -25.71     20.00
   20.6150    135.75    136.02    -28.23     20.00
   20.6251    138.43    135.61    -25.14     20.00
   20.6353    136.74    135.20    -26.42     20.00
   20.6455    135.16    134.79    -27.59     20.00
   20.6556    136.37    134.39    -25.98     20.00
   20.6658    135.74    133.99    -26.21     20.00
   20.6760    135.47    133.60    -26.09     20.00
   20.6861    134.49    133.21    -26.68     20.00
   20.6963    135.63    132.82    -25.16     20.00
   20.7065    133.32    132.45    -27.09     20.00
   20.7166    134.20    132.08    -25.84     20.00
   20.7268    131.50    131.71    -28.17     20.00
   20.7369    131.69    131.36    -27.63     20.00
   20.7471    131.21    131.00    -27.76     20.00
   20.7573    130.63    130.66    -27.99     20.00
   20.7674    129.52    130.33    -28.77     20.00
   20.7776    130.31    130.00    -27.66     20.00
   20.7878    129.39    129.68    -28.26     20.00
   20.7979    129.03    129.38    -28.31     20.00
   20.8081    129.13    129.08    -27.91     20.00
   20.8183    127.93    128.78    -28.82     20.00
   20.8284    128.87    128.50    -27.59     20.00
   20.8386    127.06    128.23    -29.13     20.00
   20.8488    127.11    127.96    -28.81     20.00
   20.8589    125.46    127.70    -30.21     20.00
   20.8691    126.72    127.46    -28.70     20.00
   20.8792    126.55    127.22    -28.63     20.00
   20.8894    126.22    126.98    -28.73     20.00
   20.8996    127.33    126.76    -27.39     20.00
   20.9097    125.05    126.54    -29.46     20.00
   20.9199    124.32    126.33    -29.98     20.00
   20.9301    124.95    126.13    -29.15     20.00
   20.9402    124.77    125.94    -29.13     20.00
   20.9504    123.65    125.76    -30.07     20.00
   20.9606    123.94    125.58    -29.60     20.00
   20.9707    122.68    125.41    -30.69     20.00
   20.9809    121.29    125.24    -31.91     20.00
   20.9911    123.77    125.09    -29.28     20.00
   21.0012    121.51    124.94    -31.39     20.00
   21.0114    121.49    124.79    -31.26     20.00
   21.0216    121.84    124.65    -30.77     20.00
   21.0317    120.75    124.52    -31.73     20.00
   21.0419    120.61    124.40    -31.75     20.00
   21.0520    120.43    124.28    -31.81     20.00
   21.0622    120.45    124.16    -31.67     20.00
   21.0724    120.29    124.05    -31.73     20.00
   21.0825    121.55    123.95    -30.36     20.00
   21.0927    121.37    123.85    -30.45     20.00
   21.1029    118.02    123.76    -33.71     20.00
   21.1130    120.48    123.68    -31.16     20.00
   21.1232    119.36    123.60    -32.20     20.00
   21.1334    118.28    123.52    -33.20     20.00
   21.1435    116.62    123.45    -34.80     20.00
   21.1537    120.67    123.39    -30.68     20.00
   21.1639    117.94    123.33    -33.35     20.00
   21.1740    118.93    123.28    -32.31     20.00
   21.1842    120.16    123.23    -31.03     20.00
   21.1943    117.73    123.19    -33.42     20.00
   21.2045    119.66    123.15    -31.45     20.00
   21.2147    119.54    123.12    -31.54     20.00
   21.2248    117.26    123.09    -33.80     20.00
   21.2350    118.39    123.07    -32.65     20.00
   21.2452    118.83    123.06    -32.19     20.00
   21.2553    118.40    123.05    -32.62     20.00
   21.2655    118.17    123.05    -32.84     20.00
   21.2757    117.66    123.06    -33.36     20.00
   21.2858    116.21    123.07    -34.82     20.00
   21.2960    119.69    123.09    -31.36     20.00
   21.3062    120.30    123.11    -30.77     20.00
   21.3163    117.43    123.14    -33.68     20.00
   21.3265    119.51    123.18    -31.63     20.00
   21.3366    117.66    123.23    -33.53     20.00
   21.3468    119.45    123.28    -31.79     20.00
   21.3570    118.24    123.34    -33.07     20.00
   21.3671    120.08    123.41    -31.30     20.00
   21.3773    118.45    123.49    -33.00     20.00
   21.3875    120.69    123.58    -30.85     20.00
   21.3976    119.18    123.67    -32.45     20.00
   21.4078    119.98    123.77    -31.76     20.00
   21.4180    120.04    123.89    -31.81     20.00
   21.4281    118.33    124.01    -33.64     20.00
   21.4383    119.16    124.14    -32.94     20.00
   21.4485    120.79    124.28    -31.45     20.00
   21.4586    120.51    124.42    -31.88     20.00
   21.4688    119.03    124.58    -33.51     20.00
   21.4790    119.91    124.75    -32.80     20.00
   21.4891    120.11    124.93    -32.78     20.00
   21.4993    121.46    125.12    -31.62     20.00
   21.5094    122.43    125.32    -30.85     20.00
   21.5196    122.89    125.53    -30.60     20.00
   21.5298    122.09    125.75    -31.63     20.00
   21.5399    123.84    125.98    -30.11     20.00
   21.5501    122.75    126.23    -31.44     20.00
   21.5603    124.15    126.49    -30.30     20.00
   21.5704    124.52    126.75    -30.19     20.00
   21.5806    124.80    127.03    -30.19     20.00
   21.5908    123.82    127.32    -31.46     20.00
   21.6009    126.21    127.62    -29.37     20.00
   21.6111    127.48    127.94    -28.42     20.00
   21.6213    124.99    128.26    -31.24     20.00
   21.6314    127.76    128.60    -28.80     20.00
   21.6416    128.65    128.95    -28.26     20.00
   21.6517    128.65    129.31    -28.62     20.00
   21.6619    130.73    129.69    -26.92     20.00
   21.6721    131.67    130.07    -26.36     20.00
   21.6822    130.11    130.47    -28.32     20.00
   21.6924    131.77    130.88    -27.07     20.00
   21.7026    133.78    131.30    -25.48     20.00
   21.7127    131.38    131.73    -28.31     20.00
   21.7229    134.51    132.18    -25.63     20.00
   21.7331    134.08    132.64    -26.52     20.00
   21.7432    134.81    133.10    -26.25     20.00
   21.7534    135.94    133.58    -25.60     20.00
   21.7636    135.41    134.07    -26.63     20.00
   21.7737    136.00    134.57    -26.53     20.00
   21.7839    136.84    135.08    -26.21     20.00
   21.7941    137.45    135.61    -26.12     20.00
   21.8042    138.63    136.13    -25.47     20.00
   21.8144    140.43    136.68    -24.21     20.00
   21.8245    141.27    137.22    -23.91     20.00
   21.8347    138.92    137.78    -26.82     20.00
   21.8449    140.84    138.35    -25.47     20.00
   21.8550    142.16    138.92    -24.72     20.00
   21.8652    141.40    139.50    -26.07     20.00
   21.8754    144.77    140.10    -23.29     20.00
   21.8855    144.06    140.69    -24.59     20.00
   21.8957    142.86    141.29    -26.39     20.00
   21.9059    146.05    141.90    -23.81     20.00
   21.9160    146.98    142.50    -23.48     20.00
   21.9262    146.04    143.12    -25.04     20.00
   21.9364    148.52    143.74    -23.18     20.00
   21.9465    148.60    144.35    -23.72     20.00
   21.9567    146.61    144.98    -26.33     20.00
   21.9668    148.76    145.59    -24.80     20.00
   21.9770    150.34    146.22    -23.84     20.00
   21.9872    150.56    146.84    -24.24     20.00
   21.9973    151.73    147.46    -23.69     20.00
   22.0075    151.99    148.07    -24.05     20.00
   22.0177    150.23    148.69    -26.42     20.00
   22.0278    152.39    149.29    -24.86     20.00
   22.0380    154.20    149.90    -23.66     20.00
   22.0482    154.28    150.49    -24.18     20.00
   22.0583    155.34    151.08    -23.70     20.00
   22.0685    155.71    151.66    -23.91     20.00
   22.0787    154.90    152.23    -25.29     20.00
   22.0888    157.91    152.78    -22.83     20.00
   22.0990    155.68    153.33    -25.61     20.00
   22.1092    157.04    153.86    -24.78     20.00
   22.1193    160.40    154.37    -21.93     20.00
   22.1295    159.38    154.87    -23.45     20.00
   22.1396    156.10    155.35    -27.21     20.00
   22.1498    159.68    155.81    -24.10     20.00
   22.1600    159.43    156.26    -24.79     20.00
   22.1701    159.76    156.68    -24.88     20.00
   22.1803    159.24    157.08    -25.80     20.00
   22.1905    161.36    157.45    -24.05     20.00
   22.2006    156.66    157.80    -29.10     20.00
   22.2108    158.87    158.12    -27.21     20.00
   22.2210    161.62    158.41    -24.76     20.00
   22.2311    158.52    158.68    -28.12     20.00
   22.2413    161.07    158.91    -25.80     20.00
   22.2515    162.34    159.12    -24.74     20.00
   22.2616    160.44    159.29    -26.81     20.00
   22.2718    159.35    159.43    -28.04     20.00
   22.2819    162.70    159.53    -24.79     20.00
   22.2921    160.29    159.60    -27.27     20.00
   22.3023    159.48    159.63    -28.12     20.00
   22.3124    162.18    159.63    -25.42     20.00
   22.3226    159.38    159.60    -28.18     20.00
   22.3328    159.34    159.52    -28.14     20.00
   22.3429    161.09    159.41    -26.28     20.00
   22.3531    157.77    159.26    -29.45     20.00
   22.3633    157.32    159.07    -29.71     20.00
   22.3734    158.65    158.85    -28.16     20.00
   22.3836    156.54    158.59    -30.01     20.00
   22.3938    160.00    158.29    -26.25     20.00
   22.4039    156.90    157.96    -29.02     20.00
   22.4141    154.06    157.59    -31.49     20.00
   22.4243    156.98    157.18    -28.16     20.00
   22.4344    154.59    156.74    -30.12     20.00
   22.4446    153.04    156.27    -31.19     20.00
   22.4547    155.52    155.77    -28.21     20.00
   22.4649    152.18    155.23    -31.01     20.00
   22.4751    152.58    154.66    -30.04     20.00
   22.4852    151.74    154.06    -30.28     20.00
   22.4954    152.09    153.43    -29.30     20.00
   22.5056    150.27    152.77    -30.47     20.00
   22.5157    152.02    152.10    -28.04     20.00
   22.5259    150.11    151.39    -29.24     20.00
   22.5361    148.22    150.65    -30.40     20.00
   22.5462    147.58    149.91    -30.29     20.00
   22.5564    148.31    149.13    -28.78     20.00
   22.5666    145.37    148.33    -30.92     20.00
   22.5767    143.97    147.52    -31.52     20.00
   22.5869    145.17    146.69    -29.48     20.00
   22.5970    143.40    145.85    -30.41     20.00
   22.6072    144.02    144.99    -28.93     20.00
   22.6174    143.25    144.11    -28.82     20.00
   22.6275    140.87    143.23    -30.32     20.00
   22.6377    141.54    142.33    -28.75     20.00
   22.6479    140.80    141.41    -28.58     20.00
   22.6580    138.81    140.50    -29.66     20.00
   22.6682    138.44    139.58    -29.10     20.00
   22.6784    138.91    138.64    -27.69     20.00
   22.6885    136.65    137.71    -29.02     20.00
   22.6987    135.87    136.77    -28.86     20.00
   22.7089    137.71    135.82    -26.07     20.00
   22.7190    133.24    134.88    -29.60     20.00
   22.7292    133.31    133.93    -28.58     20.00
   22.7394    133.94    132.98    -27.00     20.00
   22.7495    131.49    132.03    -28.50     20.00
   22.7597    131.25    131.08    -27.79     20.00
   22.7698    130.04    130.14    -28.06     20.00
   22.7800    127.60    129.20    -29.56     20.00
   22.7902    128.82    128.25    -27.40     20.00
   22.8003    129.20    127.32    -26.09     20.00
   22.8105    125.95    126.39    -28.40     20.00
   22.8207    127.04    125.46    -26.38     20.00
   22.8308    127.40    124.55    -25.11     20.00
   22.8410    124.07    123.63    -27.52     20.00
   22.8512    123.89    122.72    -26.80     20.00
   22.8613    124.08    121.83    -25.71     20.00
   22.8715    121.17    120.94    -27.73     20.00
   22.8817    122.40    120.05    -25.62     20.00
   22.8918    121.12    119.19    -26.03     20.00
   22.9020    120.38    118.32    -25.90     20.00
   22.9121    119.82    117.47    -25.62     20.00
   22.9223    120.24    116.63    -24.35     20.00
   22.9325    118.39    115.79    -25.37     20.00
   22.9426    117.93    114.98    -25.01     20.00
   22.9528    118.41    114.16    -23.72     20.00
   22.9630    116.50    113.36    -24.82     20.00
   22.9731    116.34    112.58    -24.20     20.00
   22.9833    115.09    111.80    -24.67     20.00
   22.9935    113.80    111.03    -25.19     20.00
   23.0036    112.50    110.28    -25.74     20.00
   23.0138    114.80    109.54    -22.70     20.00
   23.0240    110.27    108.81    -26.50     20.00
   23.0341    113.02    108.10    -23.04     20.00
   23.0443    110.15    107.39    -25.20     20.00
   23.0545    108.49    106.69    -26.17     20.00
   23.0646    108.59    106.02    -25.39     20.00
   23.0748    108.26    105.35    -25.05     20.00
   23.0849    107.99    104.70    -24.67     20.00
   23.0951    106.07    104.05    -25.95     20.00
   23.1053    106.88    103.42    -24.50     20.00
   23.1154    104.83    102.81    -25.94     20.00
   23.1256    104.91    102.20    -25.25     20.00
   23.1358    106.23    101.60    -23.33     20.00
   23.1459    103.10    101.02    -25.88     20.00
   23.1561    103.81    100.45    -24.60     20.00
   23.1663    103.19     99.89    -24.66     20.00
   23.1764    102.89     99.34    -24.42     20.00
   23.1866    100.26     98.81    -26.51     20.00
   23.1968    100.81     98.28    -25.43     20.00
   23.2069    100.04     97.77    -25.69     20.00
   23.2171    101.23     97.26    -23.99     20.00
   23.2272     98.68     96.77    -26.05     20.00
   23.2374     99.92     96.29    -24.33     20.00
   23.2476     98.62     95.81    -25.16     20.00
   23.2577     97.82     95.36    -25.50     20.00
   23.2679     95.82     94.90    -27.04     20.00
   23.2781     97.74     94.46    -24.68     20.00
   23.2882     94.67     94.03    -27.32     20.00
   23.2984     95.51     93.60    -26.05     20.00
   23.3086     94.24     93.19    -26.91     20.00
   23.3187     96.06     92.78    -24.68     20.00
   23.3289     93.76     92.38    -26.59     20.00
   23.3391     93.88     91.99    -26.07     20.00
   23.3492     93.34     91.61    -26.24     20.00
   23.3594     92.66     91.24    -26.54     20.00
   23.3695     93.48     90.88    -25.36     20.00
   23.3797     92.26     90.52    -26.22     20.00
   23.3899     92.71     90.17    -25.42     20.00
   23.4000     89.82     89.82    -27.97     20.00
   23.4102     90.16     89.49    -27.29     20.00
   23.4204     90.24     89.15    -26.88     20.00
   23.4305     89.20     88.83    -27.59     20.00
   23.4407     88.93     88.51    -27.54     20.00
   23.4509     88.67     88.20    -27.49     20.00
   23.4610     89.09     87.90    -26.77     20.00
   23.4712     88.43     87.59    -27.13     20.00
   23.4814     88.71     87.30    -26.55     20.00
   23.4915     87.62     87.01    -27.35     20.00
   23.5017     86.15     86.72    -28.54     20.00
   23.5119     85.90     86.44    -28.50     20.00
   23.5220     86.74     86.17    -27.39     20.00
   23.5322     86.17     85.90    -27.69     20.00
   23.5423     85.26     85.63    -28.33     20.00
   23.5525     85.93     85.37    -27.40     20.00
   23.5627     84.09     85.11    -28.98     20.00
   23.5728     83.04     84.86    -29.78     20.00
   23.5830     83.79     84.60    -28.78     20.00
   23.5932     83.38     84.36    -28.94     20.00
   23.6033     82.67     84.11    -29.41     20.00
   23.6135     82.77     83.87    -29.06     20.00
   23.6237     82.15     83.63    -29.44     20.00
   23.6338     81.60     83.40    -29.76     20.00
   23.6440     83.07     83.17    -28.06     20.00
   23.6542     81.04     82.94    -29.86     20.00
   23.6643     81.71     82.71    -28.96     20.00
   23.6745     80.29     82.49    -30.16     20.00
   23.6846     80.21     82.27    -30.02     20.00
   23.6948     80.07     82.05    -29.94     20.00
   23.7050     79.49     81.83    -30.30     20.00
   23.7151     77.74     81.62    -31.84     20.00
   23.7253     78.04     81.40    -31.33     20.00
   23.7355     79.36     81.19    -29.79     20.00
   23.7456     78.68     80.98    -30.27     20.00
   23.7558     78.18     80.78    -30.56     20.00
   23.7660     76.46     80.57    -32.07     20.00
   23.7761     76.60     80.37    -31.73     20.00
   23.7863     77.14     80.17    -30.99     20.00
   23.7965     77.95     79.96    -29.98     20.00
   23.8066     75.84     79.77    -31.89     20.00
   23.8168     76.99     79.57    -30.54     20.00
   23.8270     76.27     79.37    -31.06     20.00
   23.8371     76.26     79.18    -30.88     20.00
   23.8473     76.13     78.98    -30.82     20.00
   23.8574     75.85     78.79    -30.90     20.00
   23.8676     75.62     78.60    -30.94     20.00
   23.8778     73.93     78.41    -32.44     20.00
   23.8879     73.97     78.22    -32.21     20.00
   23.8981     74.34     78.03    -31.66     20.00
   23.9083     73.96     77.85    -31.85     20.00
   23.9184     72.76     77.66    -32.86     20.00
   23.9286     73.64     77.48    -31.80     20.00
   23.9388     72.39     77.29    -32.86     20.00
   23.9489     74.22     77.11    -30.85     20.00
   23.9591     73.69     76.93    -31.20     20.00
   23.9693     74.19     76.74    -30.52     20.00
   23.9794     72.78     76.56    -31.75     20.00
   23.9896     73.01     76.38    -31.34     20.00
   23.9997     73.23     76.20    -30.94     20.00
   24.0099     71.90     76.03    -32.09     20.00
   24.0201     70.65     75.85    -33.16     20.00
   24.0302     71.45     75.67    -32.18     20.00
   24.0404     70.59     75.49    -32.87     20.00
   24.0506     71.83     75.32    -31.45     20.00
   24.0607     71.38     75.14    -31.73     20.00
   24.0709     70.30     74.97    -32.63     20.00
   24.0811     70.17     74.79    -32.59     20.00
   24.0912     70.11     74.62    -32.47     20.00
   24.1014     70.54     74.45    -31.87     20.00
   24.1116     69.76     74.28    -32.48     20.00
   24.1217     69.73     74.11    -32.34     20.00
   24.1319     70.42     73.93    -31.48     20.00
   24.1421     70.09     73.76    -31.64     20.00
   24.1522     69.74     73.59    -31.82     20.00
   24.1624     69.34     73.42    -32.05     20.00
   24.1725     69.51     73.26    -31.71     20.00
   24.1827     67.96     73.09    -33.09     20.00
   24.1929     68.28     72.92    -32.60     20.00
   24.2030     69.38     72.75    -31.34     20.00
   24.2132     67.94     72.59    -32.61     20.00
   24.2234     68.53     72.42    -31.85     20.00
   24.2335     67.40     72.25    -32.82     20.00
   24.2437     68.51     72.09    -31.54     20.00
   24.2539     68.47     71.92    -31.42     20.00
   24.2640     67.41     71.76    -32.31     20.00
   24.2742     67.90     71.60    -31.66     20.00
   24.2844     67.76     71.43    -31.63     20.00
   24.2945     67.49     71.27    -31.74     20.00
   24.3047     65.47     71.11    -33.60     20.00
   24.3148     67.58     70.95    -31.33     20.00
   24.3250     67.52     70.78    -31.23     20.00
   24.3352     66.30     70.62    -32.28     20.00
   24.3453     66.55     70.46    -31.87     20.00
   24.3555     67.28     70.30    -30.98     20.00
   24.3657     65.86     70.14    -32.24     20.00
   24.3758     65.63     69.98    -32.31     20.00
   24.3860     65.57     69.82    -32.22     20.00
   24.3962     66.21     69.66    -31.42     20.00
   24.4063     66.50     69.51    -30.97     20.00
   24.4165     66.48     69.35    -30.83     20.00
   24.4267     65.46     69.19    -31.69     20.00
   24.4368     65.62     69.04    -31.38     20.00
   24.4470     67.10     68.88    -29.74     20.00
   24.4572     65.30     68.72    -31.38     20.00
   24.4673     65.88     68.57    -30.65     20.00
   24.4775     64.74     68.41    -31.63     20.00
   24.4876     64.85     68.26    -31.37     20.00
   24.4978     64.37     68.10    -31.69     20.00
   24.5080     65.79     67.95    -30.12     20.00
   24.5181     63.95     67.80    -31.81     20.00
   24.5283     63.70     67.64    -31.90     20.00
   24.5385     64.37     67.49    -31.08     20.00
   24.5486     64.55     67.34    -30.75     20.00
   24.5588     62.91     67.19    -32.24     20.00
   24.5690     63.18     67.03    -31.82     20.00
   24.5791     64.12     66.88    -30.73     20.00
   24.5893     64.20     66.73    -30.49     20.00
   24.5995     63.88     66.58    -30.66     20.00
   24.6096     62.90     66.43    -31.49     20.00
   24.6198     64.16     66.28    -30.08     20.00
   24.6299     63.06     66.13    -31.04     20.00
   24.6401     62.76     65.99    -31.19     20.00
   24.6503     62.82     65.84    -30.98     20.00
   24.6604     62.16     65.69    -31.49     20.00
   24.6706     62.53     65.54    -30.97     20.00
   24.6808     63.03     65.39    -30.33     20.00
   24.6909     61.92     65.25    -31.29     20.00
   24.7011     63.35     65.10    -29.71     20.00
   24.7113     62.07     64.96    -30.85     20.00
   24.7214     63.63     64.81    -29.14     20.00
   24.7316     62.38     64.67    -30.25     20.00
   24.7418     61.45     64.52    -31.03     20.00
   24.7519     61.49     64.38    -30.85     20.00
   24.7621     61.73     64.23    -30.47     20.00
   24.7723     61.20     64.09    -30.85     20.00
   24.7824     62.23     63.95    -29.68     20.00
   24.7926     62.72     63.81    -29.05     20.00
   24.8027     62.01     63.66    -29.62     20.00
   24.8129     61.43     63.52    -30.05     20.00
   24.8231     61.85     63.38    -29.49     20.00
   24.8332     61.85     63.24    -29.35     20.00
   24.8434     61.14     63.10    -29.92     20.00
   24.8536     61.35     62.96    -29.57     20.00
   24.8637     61.29     62.82    -29.49     20.00
   24.8739     61.24     62.68    -29.40     20.00
   24.8841     61.04     62.54    -29.46     20.00
   24.8942     61.59     62.40    -28.78     20.00
   24.9044     60.99     62.26    -29.24     20.00
   24.9146     60.66     62.13    -29.43     20.00
   24.9247     59.52     61.99    -30.43     20.00
   24.9349     60.31     61.85    -29.50     20.00
   24.9450     60.90     61.72    -28.78     20.00
   24.9552     60.91     61.58    -28.63     20.00
   24.9654     60.05     61.44    -29.36     20.00
   24.9755     60.60     61.31    -28.67     20.00
   24.9857     60.83     61.18    -28.31     20.00
   24.9959     60.84     61.04    -28.16     20.00
   25.0060     58.96     60.91    -29.91     20.00
   25.0162     60.30     60.77    -28.44     20.00
   25.0264     60.45     60.64    -28.15     20.00
   25.0365     59.57     60.51    -28.90     20.00
   25.0467     60.18     60.38    -28.16     20.00
   25.0569     60.46     60.24    -27.75     20.00
   25.0670     59.87     60.11    -28.20     20.00
   25.0772     59.64     59.98    -28.30     20.00
   25.0874     59.90     59.85    -27.91     20.00
   25.0975     58.84     59.72    -28.84     20.00
   25.1077     59.16     59.59    -28.39     20.00
   25.1178     59.32     59.46    -28.10     20.00
   25.1280     59.49     59.33    -27.81     20.00
   25.1382     60.04     59.20    -27.13     20.00
   25.1483     58.45     59.08    -28.59     20.00
   25.1585     59.04     58.95    -27.87     20.00
   25.1687     58.52     58.82    -28.26     20.00
   25.1788     59.60     58.70    -27.06     20.00
   25.1890     58.93     58.57    -27.60     20.00
   25.1992     57.57     58.44    -28.84     20.00
   25.2093     57.76     58.32    -28.52     20.00
   25.2195     58.59     58.19    -27.57     20.00
   25.2297     57.22     58.07    -28.81     20.00
   25.2398     58.94     57.95    -26.97     20.00
   25.2500     59.49     57.82    -26.29     20.00
   25.2601     58.54     57.70    -27.12     20.00
   25.2703     58.92     57.58    -26.62     20.00
   25.2805     58.41     57.45    -27.01     20.00
   25.2906     58.59     57.33    -26.71     20.00
   25.3008     59.26     57.21    -25.91     20.00
   25.3110     58.05     57.09    -27.00     20.00
   25.3211     57.70     56.97    -27.23     20.00
   25.3313     57.31     56.85    -27.50     20.00
   25.3415     57.24     56.73    -27.45     20.00
   25.3516     57.62     56.61    -26.96     20.00
   25.3618     57.33     56.49    -27.13     20.00
   25.3720     56.05     56.38    -28.29     20.00
   25.3821     57.45     56.26    -26.77     20.00
   25.3923     58.65     56.14    -25.46     20.00
   25.4024     56.60     56.03    -27.39     20.00
   25.4126     57.79     55.91    -26.08     20.00
   25.4228     57.74     55.80    -26.02     20.00
   25.4329     58.43     55.68    -25.21     20.00
   25.4431     57.01     55.57    -26.52     20.00
   25.4533     56.11     55.45    -27.30     20.00
   25.4634     57.26     55.34    -26.04     20.00
   25.4736     57.46     55.23    -25.73     20.00
   25.4838     58.10     55.11    -24.98     20.00
   25.4939     57.70     55.00    -25.27     20.00
   25.5041     56.55     54.89    -26.30     20.00
   25.5143     56.29     54.78    -26.45     20.00
   25.5244     56.27     54.67    -26.36     20.00
   25.5346     57.71     54.56    -24.81     20.00
   25.5448     55.51     54.45    -26.91     20.00
   25.5549     55.74     54.35    -26.57     20.00
   25.5651     54.95     54.24    -27.25     20.00
   25.5752     56.76     54.13    -25.33     20.00
   25.5854     56.47     54.02    -25.52     20.00
   25.5956     55.16     53.92    -26.72     20.00
   25.6057     55.66     53.81    -26.12     20.00
   25.6159     54.95     53.71    -26.72     20.00
   25.6261     56.66     53.60    -24.91     20.00
   25.6362     55.81     53.50    -25.65     20.00
   25.6464     56.15     53.40    -25.21     20.00
   25.6566     56.10     53.29    -25.16     20.00
   25.6667     55.02     53.19    -26.14     20.00
   25.6769     55.18     53.09    -25.87     20.00
   25.6871     54.84     52.99    -26.11     20.00
   25.6972     54.03     52.89    -26.82     20.00
   25.7074     56.48     52.79    -24.28     20.00
   25.7175     55.73     52.70    -24.93     20.00
   25.7277     55.05     52.60    -25.51     20.00
   25.7379     54.99     52.50    -25.47     20.00
   25.7480     54.54     52.40    -25.83     20.00
   25.7582     55.35     52.31    -24.92     20.00
   25.7684     55.18     52.21    -24.99     20.00
   25.7785     54.93     52.12    -25.15     20.00
   25.7887     55.17     52.03    -24.82     20.00
   25.7989     54.38     51.93    -25.51     20.00
   25.8090     55.39     51.84    -24.41     20.00
   25.8192     54.50     51.75    -25.21     20.00
   25.8294     53.85     51.66    -25.77     20.00
   25.8395     55.60     51.57    -23.93     20.00
   25.8497     54.64     51.48    -24.80     20.00
   25.8599     54.99     51.39    -24.36     20.00
   25.8700     53.23     51.30    -26.04     20.00
   25.8802     54.34     51.22    -24.84     20.00
   25.8903     53.72     51.13    -25.37     20.00
   25.9005     54.83     51.05    -24.18     20.00
   25.9107     54.27     50.96    -24.65     20.00
   25.9208     53.14     50.88    -25.70     20.00
   25.9310     55.28     50.80    -23.48     20.00
   25.9412     54.43     50.71    -24.25     20.00
   25.9513     54.79     50.63    -23.80     20.00
   25.9615     53.70     50.55    -24.81     20.00
   25.9717     54.16     50.47    -24.28     20.00
   25.9818     53.75     50.40    -24.61     20.00
   25.9920     54.70     50.32    -23.58     20.00
   26.0022     53.68     50.24    -24.52     20.00
   26.0123     54.01     50.17    -24.12     20.00
   26.0225     55.01     50.09    -23.04     20.00
   26.0326     54.55     50.02    -23.43     20.00
   26.0428     53.65     49.95    -24.26     20.00
   26.0530     53.93     49.87    -23.91     20.00
   26.0631     54.09     49.80    -23.68     20.00
   26.0733     52.63     49.73    -25.07     20.00
   26.0835     54.37     49.67    -23.26     20.00
   26.0936     53.10     49.60    -24.46     20.00
   26.1038     52.90     49.53    -24.59     20.00
   26.1140     53.32     49.47    -24.11     20.00
   26.1241     52.63     49.40    -24.73     20.00
   26.1343     52.73     49.34    -24.57     20.00
   26.1445     53.13     49.28    -24.11     20.00
   26.1546     52.76     49.22    -24.42     20.00
   26.1648     52.93     49.16    -24.19     20.00
   26.1750     53.46     49.10    -23.60     20.00
   26.1851     52.83     49.04    -24.17     20.00
   26.1953     52.87     48.98    -24.07     20.00
   26.2054     52.01     48.93    -24.88     20.00
   26.2156     52.20     48.87    -24.63     20.00
   26.2258     52.46     48.82    -24.32     20.00
   26.2359     53.02     48.77    -23.71     20.00
   26.2461     52.66     48.72    -24.02     20.00
   26.2563     53.26     48.67    -23.37     20.00
   26.2664     52.47     48.62    -24.11     20.00
   26.2766     52.49     48.57    -24.05     20.00
   26.2868     53.60     48.53    -22.89     20.00
   26.2969     52.88     48.48    -23.57     20.00
   26.3071     52.71     48.44    -23.69     20.00
   26.3173     52.40     48.40    -23.96     20.00
   26.3274     52.64     48.36    -23.68     20.00
   26.3376     52.43     48.32    -23.85     20.00
   26.3477     52.52     48.28    -23.73     20.00
   26.3579     52.26     48.25    -23.95     20.00
   26.3681     53.23     48.21    -22.95     20.00
   26.3782     52.21     48.18    -23.93     20.00
   26.3884     50.96     48.15    -25.15     20.00
   26.3986     52.06     48.12    -24.02     20.00
   26.4087     51.27     48.09    -24.78     20.00
   26.4189     51.17     48.06    -24.85     20.00
   26.4291     51.87     48.04    -24.13     20.00
   26.4392     51.63     48.01    -24.34     20.00
   26.4494     51.38     47.99    -24.57     20.00
   26.4596     51.50     47.97    -24.43     20.00
   26.4697     52.24     47.95    -23.67     20.00
   26.4799     51.62     47.93    -24.27     20.00
   26.4901     52.24     47.91    -23.64     20.00
   26.5002     51.98     47.90    -23.88     20.00
   26.5104     51.55     47.89    -24.30     20.00
   26.5205     51.46     47.87    -24.38     20.00
   26.5307     51.90     47.86    -23.93     20.00
   26.5409     50.71     47.86    -25.11     20.00
   26.5510     51.01     47.85    -24.80     20.00
   26.5612     49.34     47.84    -26.47     20.00
   26.5714     51.15     47.84    -24.65     20.00
   26.5815     51.45     47.84    -24.35     20.00
   26.5917     51.57     47.84    -24.23     20.00
   26.6019     52.70     47.84    -23.10     20.00
   26.6120     51.40     47.84    -24.41     20.00
   26.6222     51.95     47.85    -23.86     20.00
   26.6324     51.54     47.86    -24.28     20.00
   26.6425     50.37     47.86    -25.46     20.00
   26.6527     51.45     47.87    -24.39     20.00
   26.6628     50.68     47.89    -25.17     20.00
   26.6730     51.60     47.90    -24.26     20.00
   26.6832     50.36     47.92    -25.52     20.00
   26.6933     51.09     47.93    -24.81     20.00
   26.7035     51.35     47.95    -24.56     20.00
   26.7137     50.93     47.97    -25.01     20.00
   26.7238     50.85     48.00    -25.11     20.00
   26.7340     50.52     48.02    -25.46     20.00
   26.7442     50.61     48.05    -25.40     20.00
   26.7543     51.15     48.08    -24.89     20.00
   26.7645     50.96     48.11    -25.11     20.00
   26.7747     51.44     48.14    -24.66     20.00
   26.7848     50.07     48.17    -26.07     20.00
   26.7950     51.01     48.21    -25.16     20.00
   26.8052     50.54     48.25    -25.67     20.00
   26.8153     51.10     48.29    -25.15     20.00
   26.8255     50.53     48.33    -25.76     20.00
   26.8356     50.62     48.37    -25.71     20.00
   26.8458     50.20     48.42    -26.18     20.00
   26.8560     50.96     48.46    -25.47     20.00
   26.8661     51.38     48.51    -25.10     20.00
   26.8763     50.37     48.56    -26.16     20.00
   26.8865     50.31     48.62    -26.27     20.00
   26.8966     49.55     48.67    -27.08     20.00
   26.9068     49.98     48.73    -26.71     20.00
   26.9170     51.23     48.79    -25.52     20.00
   26.9271     50.52     48.85    -26.29     20.00
   26.9373     50.28     48.91    -26.59     20.00
   26.9475     49.76     48.98    -27.18     20.00
   26.9576     50.63     49.04    -26.37     20.00
   26.9678     50.77     49.11    -26.30     20.00
   26.9779     49.94     49.18    -27.20     20.00
   26.9881     50.70     49.25    -26.51     20.00
   26.9983     50.37     49.33    -26.92     20.00
   27.0084     50.73     49.40    -26.63     20.00
   27.0186     49.51     49.48    -27.93     20.00
   27.0288     50.62     49.56    -26.90     20.00
   27.0389     50.23     49.64    -27.37     20.00
   27.0491     49.51     49.72    -28.17     20.00
   27.0593     50.00     49.81    -27.77     20.00
   27.0694     50.90     49.89    -26.95     20.00
   27.0796     50.34     49.98    -27.60     20.00
   27.0898     50.51     50.07    -27.52     20.00
   27.0999     50.60     50.16    -27.52     20.00
   27.1101     50.20     50.26    -28.02     20.00
   27.1202     50.88     50.35    -27.43     20.00
   27.1304     49.34     50.45    -29.07     20.00
   27.1406     50.28     50.55    -28.23     20.00
   27.1507     50.34     50.65    -28.27     20.00
   27.1609     49.85     50.75    -28.86     20.00
   27.1711     49.91     50.85    -28.90     20.00
   27.1812     50.34     50.96    -28.58     20.00
   27.1914     51.01     51.06    -28.02     20.00
   27.2016     50.45     51.17    -28.68     20.00
   27.2117     50.99     51.28    -28.25     20.00
   27.2219     50.32     51.39    -29.04     20.00
   27.2321     50.10     51.51    -29.37     20.00
   27.2422     51.21     51.62    -28.37     20.00
   27.2524     50.12     51.74    -29.58     20.00
   27.2626     51.25     51.85    -28.57     20.00
   27.2727     49.99     51.97    -29.94     20.00
   27.2829     50.65     52.09    -29.40     20.00
   27.2930     51.01     52.21    -29.16     20.00
   27.3032     49.95     52.34    -30.35     20.00
   27.3134     50.65     52.46    -29.77     20.00
   27.3235     50.97     52.58    -29.58     20.00
   27.3337     50.33     52.71    -30.34     20.00
   27.3439     50.63     52.84    -30.17     20.00
   27.3540     50.93     52.97    -30.00     20.00
   27.3642     50.15     53.10    -30.91     20.00
   27.3744     51.18     53.23    -30.01     20.00
   27.3845     51.10     53.36    -30.22     20.00
   27.3947     51.64     53.49    -29.81     20.00
   27.4049     51.13     53.62    -30.46     20.00
   27.4150     50.82     53.76    -30.90     20.00
   27.4252     50.98     53.89    -30.88     20.00
   27.4353     52.34     54.03    -29.65     20.00
   27.4455     50.31     54.17    -31.82     20.00
   27.4557     51.01     54.30    -31.26     20.00
   27.4658     51.50     54.44    -30.90     20.00
   27.4760     51.51     54.58    -31.03     20.00
   27.4862     51.71     54.72    -30.97     20.00
   27.4963     51.73     54.86    -31.09     20.00
   27.5065     51.77     55.00    -31.19     20.00
   27.5167     52.25     55.14    -30.85     20.00
   27.5268     51.92     55.28    -31.32     20.00
   27.5370     51.09     55.42    -32.29     20.00
   27.5472     52.41     55.56    -31.11     20.00
   27.5573     52.98     55.70    -30.69     20.00
   27.5675     52.11     55.85    -31.70     20.00
   27.5777     52.99     55.99    -30.96     20.00
   27.5878     52.99     56.13    -31.10     20.00
   27.5980     52.17     56.27    -32.06     20.00
   27.6081     53.49     56.41    -30.88     20.00
   27.6183     53.38     56.55    -31.13     20.00
   27.6285     53.60     56.69    -31.06     20.00
   27.6386     53.09     56.83    -31.70     20.00
   27.6488     53.73     56.97    -31.21     20.00
   27.6590     54.59     57.11    -30.49     20.00
   27.6691     53.85     57.25    -31.36     20.00
   27.6793     54.21     57.39    -31.14     20.00
   27.6895     54.69     57.53    -30.80     20.00
   27.6996     53.95     57.67    -31.68     20.00
   27.7098     54.13     57.80    -31.63     20.00
   27.7200     54.56     57.94    -31.34     20.00
   27.7301     54.76     58.07    -31.27     20.00
   27.7403     54.49     58.20    -31.68     20.00
   27.7504     55.55     58.34    -30.75     20.00
   27.7606     55.14     58.47    -31.29     20.00
   27.7708     54.46     58.60    -32.10     20.00
   27.7809     55.75     58.72    -30.94     20.00
   27.7911     55.49     58.85    -31.32     20.00
   27.8013     55.40     58.98    -31.54     20.00
   27.8114     57.07     59.10    -29.99     20.00
   27.8216     56.60     59.22    -30.59     20.00
   27.8318     57.41     59.34    -29.90     20.00
   27.8419     56.73     59.46    -30.69     20.00
   27.8521     57.74     59.58    -29.80     20.00
   27.8623     58.21     59.69    -29.45     20.00
   27.8724     57.16     59.81    -30.61     20.00
   27.8826     58.10     59.92    -29.78     20.00
   27.8928     59.65     60.02    -28.34     20.00
   27.9029     57.98     60.13    -30.11     20.00
   27.9131     57.90     60.23    -30.29     20.00
   27.9232     60.62     60.33    -27.68     20.00
   27.9334     59.45     60.43    -28.94     20.00
   27.9436     58.59     60.53    -29.90     20.00
   27.9537     60.75     60.62    -27.83     20.00
   27.9639     60.04     60.71    -28.63     20.00
   27.9741     61.11     60.80    -27.65     20.00
   27.9842     60.70     60.88    -28.14     20.00
   27.9944     60.55     60.96    -28.38     20.00
   28.0046     60.65     61.04    -28.36     20.00
   28.0147     60.01     61.12    -29.07     20.00
   28.0249     61.13     61.19    -28.02     20.00
   28.0351     61.38     61.26    -27.84     20.00
   28.0452     62.35     61.33    -26.94     20.00
   28.0554     62.09     61.39    -27.26     20.00
   28.0655     61.98     61.45    -27.43     20.00
   28.0757     64.20     61.50    -25.26     20.00
   28.0859     62.29     61.55    -27.23     20.00
   28.0960     63.85     61.60    -25.71     20.00
   28.1062     62.54     61.65    -27.07     20.00
   28.1164     62.32     61.69    -27.33     20.00
   28.1265     62.92     61.73    -26.77     20.00
   28.1367     63.74     61.76    -25.98     20.00
   28.1469     64.95     61.79    -24.80     20.00
   28.1570     64.27     61.82    -25.51     20.00
   28.1672     65.12     61.84    -24.68     20.00
   28.1774     65.10     61.86    -24.72     20.00
   28.1875     64.35     61.87    -25.48     20.00
   28.1977     64.68     61.88    -25.16     20.00
   28.2079     65.29     61.89    -24.56     20.00
   28.2180     66.47     61.89    -23.38     20.00
   28.2282     65.62     61.89    -24.23     20.00
   28.2383     65.44     61.89    -24.41     20.00
   28.2485     65.68     61.88    -24.16     20.00
   28.2587     66.35     61.87    -23.48     20.00
   28.2688     65.49     61.85    -24.32     20.00
   28.2790     66.47     61.83    -23.32     20.00
   28.2892     66.87     61.80    -22.90     20.00
   28.2993     66.21     61.78    -23.53     20.00
   28.3095     65.05     61.75    -24.66     20.00
   28.3197     66.13     61.71    -23.54     20.00
   28.3298     64.73     61.67    -24.90     20.00
   28.3400     65.91     61.63    -23.68     20.00
   28.3502     65.98     61.58    -23.56     20.00
   28.3603     67.03     61.53    -22.46     20.00
   28.3705     66.45     61.48    -22.99     20.00
   28.3806     65.91     61.42    -23.47     20.00
   28.3908     65.76     61.36    -23.56     20.00
   28.4010     65.78     61.29    -23.48     20.00
   28.4111     66.13     61.23    -23.06     20.00
   28.4213     67.74     61.16    -21.38     20.00
   28.4315     65.66     61.08    -23.38     20.00
   28.4416     66.32     61.00    -22.65     20.00
   28.4518     65.32     60.92    -23.57     20.00
   28.4620     65.72     60.84    -23.08     20.00
   28.4721     64.48     60.75    -24.24     20.00
   28.4823     65.11     60.66    -23.52     20.00
   28.4925     65.30     60.57    -23.23     20.00
   28.5026     63.97     60.48    -24.47     20.00
   28.5128     65.38     60.38    -22.96     20.00
   28.5230     63.27     60.28    -24.97     20.00
   28.5331     63.68     60.17    -24.46     20.00
   28.5433     64.46     60.07    -23.57     20.00
   28.5534     62.61     59.96    -25.31     20.00
   28.5636     65.20     59.85    -22.61     20.00
   28.5738     63.30     59.74    -24.40     20.00
   28.5839     62.95     59.62    -24.63     20.00
   28.5941     61.50     59.50    -25.96     20.00
   28.6043     62.70     59.38    -24.64     20.00
   28.6144     62.04     59.26    -25.18     20.00
   28.6246     62.24     59.14    -24.86     20.00
   28.6348     61.10     59.01    -25.87     20.00
   28.6449     62.73     58.89    -24.12     20.00
   28.6551     61.88     58.76    -24.84     20.00
   28.6653     60.46     58.63    -26.13     20.00
   28.6754     60.97     58.50    -25.49     20.00
   28.6856     60.66     58.36    -25.66     20.00
   28.6957     62.14     58.23    -24.05     20.00
   28.7059     60.66     58.09    -25.39     20.00
   28.7161     61.11     57.96    -24.81     20.00
   28.7262     60.34     57.82    -25.44     20.00
   28.7364     59.71     57.68    -25.93     20.00
   28.7466     58.95     57.54    -26.55     20.00
   28.7567     59.10     57.40    -26.26     20.00
   28.7669     58.20     57.25    -27.02     20.00
   28.7771     57.55     57.11    -27.52     20.00
   28.7872     59.01     56.97    -25.92     20.00
   28.7974     58.23     56.82    -26.56     20.00
   28.8076     56.68     56.68    -27.96     20.00
   28.8177     56.66     56.53    -27.84     20.00
   28.8279     57.64     56.39    -26.71     20.00
   28.8381     56.29     56.24    -27.91     20.00
   28.8482     57.07     56.10    -26.99     20.00
   28.8584     56.57     55.95    -27.34     20.00
   28.8685     55.86     55.80    -27.90     20.00
   28.8787     56.68     55.65    -26.94     20.00
   28.8889     55.80     55.51    -27.67     20.00
   28.8990     55.78     55.36    -27.54     20.00
   28.9092     56.09     55.21    -27.08     20.00
   28.9194     54.73     55.06    -28.30     20.00
   28.9295     54.13     54.92    -28.75     20.00
   28.9397     54.66     54.77    -28.07     20.00
   28.9499     53.85     54.62    -28.73     20.00
   28.9600     53.71     54.48    -28.73     20.00
   28.9702     54.30     54.33    -27.99     20.00
   28.9804     54.56     54.18    -27.58     20.00
   28.9905     53.69     54.04    -28.31     20.00
   29.0007     53.95     53.89    -27.90     20.00
   29.0108     52.19     53.75    -29.52     20.00
   29.0210     52.25     53.60    -29.31     20.00
   29.0312     52.38     53.46    -29.04     20.00
   29.0413     52.30     53.32    -28.98     20.00
   29.0515     53.33     53.17    -27.80     20.00
   29.0617     52.29     53.03    -28.70     20.00
   29.0718     51.66     52.89    -29.19     20.00
   29.0820     52.48     52.75    -28.23     20.00
   29.0922     52.73     52.61    -27.84     20.00
   29.1023     51.94     52.47    -28.49     20.00
   29.1125     51.01     52.33    -29.28     20.00
   29.1227     51.79     52.19    -28.36     20.00
   29.1328     51.27     52.05    -28.75     20.00
   29.1430     51.56     51.92    -28.32     20.00
   29.1531     51.31     51.78    -28.43     20.00
   29.1633     49.98     51.65    -29.63     20.00
   29.1735     50.56     51.51    -28.91     20.00
   29.1836     50.23     51.38    -29.11     20.00
   29.1938     49.30     51.25    -29.91     20.00
   29.2040     49.87     51.12    -29.21     20.00
   29.2141     49.46     50.99    -29.49     20.00
   29.2243     49.46     50.86    -29.36     20.00
   29.2345     49.82     50.73    -28.87     20.00
   29.2446     50.12     50.60    -28.44     20.00
   29.2548     49.57     50.48    -28.87     20.00
   29.2650     49.67     50.35    -28.64     20.00
   29.2751     48.91     50.23    -29.28     20.00
   29.2853     47.67     50.10    -30.39     20.00
   29.2955     48.55     49.98    -29.39     20.00
   29.3056     48.73     49.86    -29.09     20.00
   29.3158     48.02     49.74    -29.68     20.00
   29.3259     48.32     49.62    -29.26     20.00
   29.3361     48.22     49.50    -29.24     20.00
   29.3463     48.19     49.38    -29.15     20.00
   29.3564     47.87     49.27    -29.36     20.00
   29.3666     47.68     49.15    -29.43     20.00
   29.3768     48.49     49.03    -28.51     20.00
   29.3869     46.75     48.92    -30.13     20.00
   29.3971     47.32     48.81    -29.45     20.00
   29.4073     46.77     48.70    -29.89     20.00
   29.4174     46.34     48.59    -30.21     20.00
   29.4276     46.96     48.48    -29.48     20.00
   29.4378     45.66     48.37    -30.67     20.00
   29.4479     47.40     48.26    -28.82     20.00
   29.4581     45.84     48.15    -30.27     20.00
   29.4682     46.19     48.05    -29.82     20.00
   29.4784     46.62     47.94    -29.28     20.00
   29.4886     45.63     47.83    -30.17     20.00
   29.4987     46.14     47.73    -29.55     20.00
   29.5089     46.40     47.63    -29.19     20.00
   29.5191     46.44     47.52    -29.05     20.00
   29.5292     45.74     47.42    -29.65     20.00
   29.5394     45.60     47.32    -29.68     20.00
   29.5496     45.63     47.22    -29.55     20.00
   29.5597     45.57     47.12    -29.52     20.00
   29.5699     45.70     47.02    -29.29     20.00
   29.5801     45.46     46.93    -29.43     20.00
   29.5902     45.67     46.83    -29.12     20.00
   29.6004     45.18     46.73    -29.51     20.00
   29.6106     46.03     46.64    -28.57     20.00
   29.6207     45.31     46.54    -29.19     20.00
   29.6309     45.26     46.45    -29.15     20.00
   29.6410     45.34     46.35    -28.97     20.00
   29.6512     45.16     46.26    -29.06     20.00
   29.6614     45.10     46.16    -29.02     20.00
   29.6715     45.83     46.07    -28.20     20.00
   29.6817     44.68     45.98    -29.26     20.00
   29.6919     44.61     45.88    -29.24     20.00
   29.7020     45.79     45.79    -27.97     20.00
   29.7122     44.84     45.70    -28.82     20.00
   29.7224     44.60     45.61    -28.97     20.00
   29.7325     44.90     45.52    -28.58     20.00
   29.7427     44.35     45.43    -29.04     20.00
   29.7529     44.34     45.34    -28.96     20.00
   29.7630     44.35     45.25    -28.86     20.00
   29.7732     43.98     45.16    -29.14     20.00
   29.7833     44.66     45.07    -28.37     20.00
   29.7935     44.34     44.98    -28.60     20.00
   29.8037     43.76     44.89    -29.09     20.00
   29.8138     43.65     44.80    -29.11     20.00
   29.8240     44.18     44.71    -28.49     20.00
   29.8342     43.10     44.62    -29.48     20.00
   29.8443     43.49     44.53    -29.01     20.00
   29.8545     43.94     44.44    -28.47     20.00
   29.8647     43.29     44.35    -29.03     20.00
   29.8748     43.79     44.27    -28.44     20.00
   29.8850     43.27     44.18    -28.87     20.00
   29.8952     43.30     44.09    -28.75     20.00
   29.9053     43.71     44.00    -28.25     20.00
   29.9155     43.25     43.91    -28.62     20.00
   29.9257     42.86     43.82    -28.92     20.00
   29.9358     43.70     43.73    -27.99     20.00
   29.9460     42.20     43.64    -29.40     20.00
   29.9561     43.07     43.55    -28.44     20.00
   29.9663     42.95     43.46    -28.47     20.00
   29.9765     42.91     43.37    -28.42     20.00
   29.9866     42.76     43.28    -28.48     20.00
   29.9968     43.19     43.19    -27.96     20.00
   30.0070     42.02     43.10    -29.04     20.00
   30.0171     41.80     43.01    -29.17     20.00
   30.0273     42.86     42.92    -28.02     20.00
   30.0375     43.58     42.83    -27.21     20.00
   30.0476     42.39     42.74    -28.31     20.00
   30.0578     43.05     42.64    -27.56     20.00
   30.0680     42.51     42.55    -28.00     20.00
   30.0781     41.28     42.46    -29.14     20.00
   30.0883     41.96     42.37    -28.37     20.00
   30.0984     42.52     42.28    -27.72     20.00
   30.1086     41.44     42.18    -28.71     20.00
   30.1188     41.10     42.09    -28.95     20.00
   30.1289     41.93     42.00    -28.03     20.00
   30.1391     40.99     41.90    -28.88     20.00
   30.1493     41.12     41.81    -28.65     20.00
   30.1594     40.94     41.72    -28.74     20.00
   30.1696     40.74     41.62    -28.84     20.00
   30.1798     41.29     41.53    -28.20     20.00
   30.1899     41.48     41.43    -27.91     20.00
   30.2001     41.05     41.34    -28.25     20.00
   30.2103     40.56     41.24    -28.64     20.00
   30.2204     40.70     41.15    -28.41     20.00
   30.2306     39.86     41.05    -29.15     20.00
   30.2408     40.57     40.95    -28.35     20.00
   30.2509     39.95     40.86    -28.87     20.00
   30.2611     39.43     40.76    -29.29     20.00
   30.2712     39.59     40.67    -29.04     20.00
   30.2814     39.92     40.57    -28.61     20.00
   30.2916     39.70     40.47    -28.73     20.00
   30.3017     39.76     40.38    -28.58     20.00
   30.3119     38.77     40.28    -29.47     20.00
   30.3221     39.01     40.18    -29.13     20.00
   30.3322     39.68     40.08    -28.37     20.00
   30.3424     40.14     39.99    -27.81     20.00
   30.3526     38.38     39.89    -29.47     20.00
   30.3627     39.29     39.79    -28.46     20.00
   30.3729     38.95     39.69    -28.71     20.00
   30.3831     38.32     39.60    -29.24     20.00
   30.3932     38.27     39.50    -29.19     20.00
   30.4034     39.38     39.40    -27.98     20.00
   30.4135     38.78     39.30    -28.49     20.00
   30.4237     38.70     39.21    -28.47     20.00
   30.4339     38.37     39.11    -28.70     20.00
   30.4440     38.18     39.01    -28.79     20.00
   30.4542     38.01     38.91    -28.86     20.00
   30.4644     38.04     38.81    -28.74     20.00
   30.4745     38.07     38.72    -28.61     20.00
   30.4847     38.80     38.62    -27.78     20.00
   30.4949     39.40     38.52    -27.08     20.00
   30.5050     38.55     38.43    -27.84     20.00
   30.5152     38.34     38.33    -27.95     20.00
   30.5254     37.96     38.23    -28.23     20.00
   30.5355     37.65     38.13    -28.45     20.00
   30.5457     37.95     38.04    -28.05     20.00
   30.5559     37.74     37.94    -28.16     20.00
   30.5660     37.51     37.84    -28.30     20.00
   30.5762     37.20     37.75    -28.51     20.00
   30.5863     37.61     37.65    -28.01     20.00
   30.5965     37.24     37.56    -28.28     20.00
   30.6067     37.66     37.46    -27.76     20.00
   30.6168     36.66     37.37    -28.67     20.00
   30.6270     36.90     37.27    -28.33     20.00
   30.6372     36.90     37.18    -28.24     20.00
   30.6473     36.82     37.08    -28.23     20.00
   30.6575     37.72     36.99    -27.23     20.00
   30.6677     37.35     36.90    -27.51     20.00
   30.6778     36.29     36.80    -28.48     20.00
   30.6880     36.80     36.71    -27.87     20.00
   30.6982     36.54     36.62    -28.04     20.00
   30.7083     36.46     36.53    -28.03     20.00
   30.7185     36.62     36.43    -27.78     20.00
   30.7286     37.47     36.34    -26.84     20.00
   30.7388     36.46     36.25    -27.76     20.00
   30.7490     36.71     36.16    -27.42     20.00
   30.7591     36.78     36.07    -27.26     20.00
   30.7693     37.10     35.98    -26.85     20.00
   30.7795     36.18     35.90    -27.68     20.00
   30.7896     36.63     35.81    -27.14     20.00
   30.7998     36.67     35.72    -27.01     20.00
   30.8100     36.10     35.63    -27.50     20.00
   30.8201     36.40     35.55    -27.11     20.00
   30.8303     36.56     35.46    -26.86     20.00
   30.8405     35.82     35.38    -27.52     20.00
   30.8506     36.71     35.29    -26.54     20.00
   30.8608     35.66     35.21    -27.51     20.00
   30.8710     35.56     35.12    -27.53     20.00
   30.8811     35.81     35.04    -27.19     20.00
   30.8913     36.11     34.96    -26.81     20.00
   30.9014     36.13     34.88    -26.71     20.00
   30.9116     36.05     34.80    -26.71     20.00
   30.9218     36.07     34.72    -26.61     20.00
   30.9319     36.20     34.64    -26.40     20.00
   30.9421     35.70     34.56    -26.82     20.00
   30.9523     34.81     34.48    -27.63     20.00
   30.9624     35.43     34.40    -26.93     20.00
   30.9726     35.49     34.33    -26.80     20.00
   30.9828     35.87     34.25    -26.34     20.00
   30.9929     35.28     34.17    -26.86     20.00
   31.0031     34.65     34.10    -27.41     20.00
   31.0133     36.81     34.03    -25.18     20.00
   31.0234     35.98     33.95    -25.94     20.00
   31.0336     35.25     33.88    -26.59     20.00
   31.0437     35.76     33.81    -26.01     20.00
   31.0539     35.02     33.74    -26.68     20.00
   31.0641     35.83     33.67    -25.80     20.00
   31.0742     35.11     33.60    -26.45     20.00
   31.0844     33.55     33.53    -27.95     20.00
   31.0946     35.41     33.47    -26.02     20.00
   31.1047     35.29     33.40    -26.07     20.00
   31.1149     34.54     33.34    -26.76     20.00
   31.1251     35.58     33.27    -25.65     20.00
   31.1352     35.32     33.21    -25.85     20.00
   31.1454     34.66     33.14    -26.45     20.00
   31.1556     33.99     33.08    -27.05     20.00
   31.1657     34.83     33.02    -26.15     20.00
   31.1759     35.57     32.96    -25.35     20.00
   31.1860     34.38     32.90    -26.49     20.00
   31.1962     35.73     32.85    -25.08     20.00
   31.2064     34.62     32.79    -26.13     20.00
   31.2165     35.27     32.73    -25.42     20.00
   31.2267     35.05     32.68    -25.59     20.00
   31.2369     35.30     32.62    -25.28     20.00
   31.2470     34.12     32.57    -26.41     20.00
   31.2572     34.51     32.52    -25.97     20.00
   31.2674     33.87     32.46    -26.56     20.00
   31.2775     34.35     32.41    -26.03     20.00
   31.2877     34.84     32.36    -25.49     20.00
   31.2979     33.34     32.32    -26.94     20.00
   31.3080     34.10     32.27    -26.13     20.00
   31.3182     33.89     32.22    -26.29     20.00
   31.3284     33.72     32.18    -26.42     20.00
   31.3385     34.27     32.13    -25.82     20.00
   31.3487     33.76     32.09    -26.29     20.00
   31.3588     33.42     32.05    -26.59     20.00
   31.3690     34.34     32.00    -25.63     20.00
   31.3792     35.38     31.96    -24.55     20.00
   31.3893     33.88     31.92    -26.01     20.00
   31.3995     33.49     31.89    -26.36     20.00
   31.4097     34.76     31.85    -25.05     20.00
   31.4198     33.95     31.81    -25.82     20.00
   31.4300     34.29     31.78    -25.45     20.00
   31.4402     34.87     31.74    -24.83     20.00
   31.4503     33.55     31.71    -26.12     20.00
   31.4605     34.25     31.68    -25.39     20.00
   31.4707     33.53     31.65    -26.08     20.00
   31.4808     33.95     31.62    -25.63     20.00
   31.4910     34.05     31.59    -25.50     20.00
   31.5011     33.81     31.56    -25.71     20.00
   31.5113     33.93     31.53    -25.56     20.00
   31.5215     33.35     31.50    -26.12     20.00
   31.5316     35.02     31.48    -24.42     20.00
   31.5418     33.81     31.46    -25.61     20.00
   31.5520     33.33     31.43    -26.06     20.00
   31.5621     34.40     31.41    -24.97     20.00
   31.5723     33.19     31.39    -26.16     20.00
   31.5825     33.67     31.37    -25.66     20.00
   31.5926     33.96     31.35    -25.35     20.00
   31.6028     33.27     31.33    -26.02     20.00
   31.6130     33.57     31.32    -25.71     20.00
   31.6231     33.15     31.30    -26.11     20.00
   31.6333     33.44     31.28    -25.81     20.00
   31.6435     33.23     31.27    -26.00     20.00
   31.6536     33.62     31.26    -25.60     20.00
   31.6638     32.31     31.25    -26.90     20.00
   31.6739     33.41     31.24    -25.79     20.00
   31.6841     33.90     31.23    -25.29     20.00
   31.6943     33.35     31.22    -25.83     20.00
   31.7044     33.46     31.21    -25.71     20.00
   31.7146     33.75     31.20    -25.41     20.00
   31.7248     33.07     31.20    -26.09     20.00
   31.7349     33.28     31.19    -25.87     20.00
   31.7451     33.07     31.19    -26.08     20.00
   31.7553     33.33     31.18    -25.82     20.00
   31.7654     32.55     31.18    -26.59     20.00
   31.7756     33.32     31.18    -25.82     20.00
   31.7858     32.59     31.18    -26.55     20.00
   31.7959     33.38     31.18    -25.76     20.00
   31.8061     32.90     31.18    -26.24     20.00
   31.8162     33.78     31.18    -25.37     20.00
   31.8264     33.86     31.19    -25.29     20.00
   31.8366     33.49     31.19    -25.66     20.00
   31.8467     33.26     31.20    -25.90     20.00
   31.8569     33.49     31.20    -25.67     20.00
   31.8671     33.22     31.21    -25.95     20.00
   31.8772     32.84     31.22    -26.34     20.00
   31.8874     32.82     31.23    -26.37     20.00
   31.8976     33.31     31.23    -25.89     20.00
   31.9077     32.85     31.25    -26.36     20.00
   31.9179     33.01     31.26    -26.21     20.00
   31.9281     33.20     31.27    -26.03     20.00
   31.9382     33.23     31.28    -26.01     20.00
   31.9484     33.77     31.29    -25.49     20.00
   31.9586     33.31     31.31    -25.96     20.00
   31.9687     32.84     31.32    -26.45     20.00
   31.9789     32.69     31.34    -26.61     20.00
   31.9890     33.10     31.36    -26.22     20.00
   31.9992     33.36     31.37    -25.98     20.00
   32.0094     32.86     31.39    -26.49     20.00
   32.0195     33.96     31.41    -25.41     20.00
   32.0297     32.75     31.43    -26.64     20.00
   32.0399     33.20     31.45    -26.21     20.00
   32.0500     33.19     31.47    -26.24     20.00
   32.0602     33.68     31.49    -25.77     20.00
   32.0704     32.87     31.51    -26.61     20.00
   32.0805     33.27     31.54    -26.23     20.00
   32.0907     32.93     31.56    -26.59     20.00
   32.1009     33.29     31.58    -26.26     20.00
   32.1110     33.30     31.61    -26.27     20.00
   32.1212     32.49     31.63    -27.11     20.00
   32.1313     32.74     31.66    -26.88     20.00
   32.1415     33.20     31.69    -26.45     20.00
   32.1517     32.72     31.71    -26.95     20.00
   32.1618     33.19     31.74    -26.51     20.00
   32.1720     32.82     31.77    -26.91     20.00
   32.1822     32.42     31.80    -27.34     20.00
   32.1923     32.88     31.82    -26.91     20.00
   32.2025     32.93     31.85    -26.89     20.00
   32.2127     32.72     31.88    -27.13     20.00
   32.2228     32.83     31.91    -27.05     20.00
   32.2330     33.39     31.94    -26.52     20.00
   32.2432     32.81     31.97    -27.13     20.00
   32.2533     33.07     32.01    -26.90     20.00
   32.2635     33.10     32.04    -26.90     20.00
   32.2737     33.09     32.07    -26.94     20.00
   32.2838     33.15     32.10    -26.91     20.00
   32.2940     31.91     32.13    -28.19     20.00
   32.3041     32.56     32.17    -27.57     20.00
   32.3143     32.40     32.20    -27.76     20.00
   32.3245     33.07     32.23    -27.13     20.00
   32.3346     32.33     32.27    -27.90     20.00
   32.3448     33.32     32.30    -26.94     20.00
   32.3550     32.46     32.34    -27.84     20.00
   32.3651     32.18     32.37    -28.15     20.00
   32.3753     33.09     32.40    -27.28     20.00
   32.3855     32.66     32.44    -27.74     20.00
   32.3956     33.21     32.47    -27.22     20.00
   32.4058     32.93     32.51    -27.54     20.00
   32.4160     33.05     32.54    -27.45     20.00
   32.4261     33.05     32.58    -27.49     20.00
   32.4363     33.40     32.61    -27.17     20.00
   32.4464     32.33     32.65    -28.28     20.00
   32.4566     31.89     32.68    -28.75     20.00
   32.4668     32.34     32.72    -28.34     20.00
   32.4769     32.86     32.75    -27.85     20.00
   32.4871     32.65     32.79    -28.10     20.00
   32.4973     32.71     32.82    -28.07     20.00
   32.5074     33.27     32.86    -27.55     20.00
   32.5176     33.18     32.89    -27.67     20.00
   32.5278     33.37     32.92    -27.52     20.00
   32.5379     32.55     32.96    -28.37     20.00
   32.5481     32.39     32.99    -28.56     20.00
   32.5583     33.08     33.03    -27.91     20.00
   32.5684     32.89     33.06    -28.13     20.00
   32.5786     32.32     33.09    -28.73     20.00
   32.5888     32.93     33.12    -28.16     20.00
   32.5989     32.50     33.16    -28.62     20.00
   32.6091     32.01     33.19    -29.14     20.00
   32.6192     33.23     33.22    -27.95     20.00
   32.6294     34.34     33.25    -26.87     20.00
   32.6396     32.59     33.28    -28.66     20.00
   32.6497     32.72     33.31    -28.56     20.00
   32.6599     31.94     33.34    -29.37     20.00
   32.6701     32.33     33.37    -29.01     20.00
   32.6802     33.09     33.40    -28.27     20.00
   32.6904     32.51     33.43    -28.88     20.00
   32.7006     32.63     33.46    -28.79     20.00
   32.7107     32.46     33.49    -28.99     20.00
   32.7209     32.69     33.51    -28.79     20.00
   32.7311     32.46     33.54    -29.04     20.00
   32.7412     33.54     33.57    -27.99     20.00
   32.7514     32.51     33.59    -29.04     20.00
   32.7615     32.96     33.61    -28.62     20.00
   32.7717     32.68     33.64    -28.92     20.00
   32.7819     31.99     33.66    -29.63     20.00
   32.7920     33.13     33.68    -28.52     20.00
   32.8022     32.71     33.71    -28.96     20.00
   32.8124     32.85     33.73    -28.84     20.00
   32.8225     32.78     33.75    -28.93     20.00
   32.8327     33.33     33.76    -28.40     20.00
   32.8429     32.51     33.78    -29.23     20.00
   32.8530     33.11     33.80    -28.65     20.00
   32.8632     32.49     33.82    -29.29     20.00
   32.8734     32.79     33.83    -29.00     20.00
   32.8835     31.63     33.85    -30.18     20.00
   32.8937     32.79     33.86    -29.03     20.00
   32.9039     33.68     33.87    -28.16     20.00
   32.9140     32.72     33.88    -29.13     20.00
   32.9242     33.09     33.90    -28.77     20.00
   32.9343     34.05     33.91    -27.82     20.00
   32.9445     33.02     33.91    -28.86     20.00
   32.9547     32.71     33.92    -29.17     20.00
   32.9648     33.21     33.93    -28.68     20.00
   32.9750     32.57     33.93    -29.33     20.00
   32.9852     32.92     33.94    -28.98     20.00
   32.9953     32.41     33.94    -29.49     20.00
   33.0055     32.31     33.95    -29.60     20.00
   33.0157     33.01     33.95    -28.90     20.00
   33.0258     33.28     33.95    -28.63     20.00
   33.0360     33.10     33.95    -28.81     20.00
   33.0462     32.87     33.94    -29.04     20.00
   33.0563     33.20     33.94    -28.70     20.00
   33.0665     33.59     33.94    -28.31     20.00
   33.0766     33.29     33.93    -28.60     20.00
   33.0868     32.79     33.92    -29.10     20.00
   33.0970     33.90     33.92    -27.98     20.00
   33.1071     32.57     33.91    -29.30     20.00
   33.1173     33.45     33.90    -28.41     20.00
   33.1275     33.58     33.89    -28.27     20.00
   33.1376     33.13     33.87    -28.71     20.00
   33.1478     32.63     33.86    -29.19     20.00
   33.1580     32.95     33.85    -28.86     20.00
   33.1681     33.84     33.83    -27.95     20.00
   33.1783     32.84     33.81    -28.94     20.00
   33.1885     33.01     33.80    -28.75     20.00
   33.1986     33.51     33.78    -28.23     20.00
   33.2088     33.98     33.76    -27.74     20.00
   33.2189     34.10     33.73    -27.60     20.00
   33.2291     33.40     33.71    -28.27     20.00
   33.2393     34.10     33.69    -27.55     20.00
   33.2494     33.30     33.66    -28.32     20.00
   33.2596     33.44     33.64    -28.16     20.00
   33.2698     33.55     33.61    -28.02     20.00
   33.2799     32.96     33.58    -28.58     20.00
   33.2901     33.56     33.55    -27.95     20.00
   33.3003     33.15     33.52    -28.33     20.00
   33.3104     32.93     33.49    -28.52     20.00
   33.3206     33.04     33.46    -28.38     20.00
   33.3308     32.82     33.42    -28.56     20.00
   33.3409     33.15     33.39    -28.20     20.00
   33.3511     33.33     33.35    -27.98     20.00
   33.3613     32.54     33.32    -28.74     20.00
   33.3714     33.05     33.28    -28.19     20.00
   33.3816     33.37     33.24    -27.83     20.00
   33.3917     32.91     33.20    -28.25     20.00
   33.4019     32.77     33.16    -28.35     20.00
   33.4121     33.25     33.12    -27.83     20.00
   33.4222     32.88     33.07    -28.16     20.00
   33.4324     32.63     33.03    -28.36     20.00
   33.4426     32.29     32.99    -28.66     20.00
   33.4527     32.55     32.94    -28.35     20.00
   33.4629     32.51     32.90    -28.35     20.00
   33.4731     32.84     32.85    -27.97     20.00
   33.4832     32.37     32.80    -28.39     20.00
   33.4934     32.13     32.75    -28.58     20.00
   33.5036     32.91     32.70    -27.75     20.00
   33.5137     32.09     32.65    -28.52     20.00
   33.5239     31.98     32.60    -28.58     20.00
   33.5340     32.72     32.55    -27.79     20.00
   33.5442     32.44     32.50    -28.02     20.00
   33.5544     31.38     32.44    -29.03     20.00
   33.5645     31.68     32.39    -28.67     20.00
   33.5747     31.70     32.34    -28.60     20.00
   33.5849     31.30     32.28    -28.94     20.00
   33.5950     31.79     32.23    -28.40     20.00
   33.6052     31.09     32.17    -29.04     20.00
   33.6154     30.29     32.11    -29.79     20.00
   33.6255     30.93     32.06    -29.09     20.00
   33.6357     30.99     32.00    -28.97     20.00
   33.6459     30.67     31.94    -29.23     20.00
   33.6560     30.97     31.88    -28.87     20.00
   33.6662     30.21     31.82    -29.57     20.00
   33.6764     30.77     31.76    -28.95     20.00
   33.6865     30.26     31.70    -29.40     20.00
   33.6967     30.06     31.64    -29.54     20.00
   33.7068     30.62     31.58    -28.92     20.00
   33.7170     29.82     31.52    -29.66     20.00
   33.7272     30.24     31.46    -29.18     20.00
   33.7373     29.83     31.39    -29.53     20.00
   33.7475     30.23     31.33    -29.06     20.00
   33.7577     29.92     31.27    -29.31     20.00
   33.7678     29.26     31.20    -29.91     20.00
   33.7780     30.32     31.14    -28.78     20.00
   33.7882     30.20     31.08    -28.84     20.00
   33.7983     28.99     31.01    -29.99     20.00
   33.8085     29.57     30.95    -29.34     20.00
   33.8187     29.45     30.88    -29.40     20.00
   33.8288     29.27     30.82    -29.51     20.00
   33.8390     28.60     30.75    -30.12     20.00
   33.8491     29.88     30.69    -28.77     20.00
   33.8593     28.85     30.62    -29.74     20.00
   33.8695     29.24     30.56    -29.28     20.00
   33.8796     29.38     30.49    -29.07     20.00
   33.8898     28.32     30.43    -30.07     20.00
   33.9000     29.04     30.36    -29.28     20.00
   33.9101     28.91     30.30    -29.35     20.00
   33.9203     28.24     30.23    -29.95     20.00
   33.9305     29.05     30.16    -29.07     20.00
   33.9406     28.94     30.10    -29.12     20.00
   33.9508     28.94     30.03    -29.05     20.00
   33.9610     28.24     29.96    -29.69     20.00
   33.9711     27.79     29.90    -30.07     20.00
   33.9813     28.93     29.83    -28.86     20.00
   33.9915     28.40     29.77    -29.33     20.00
   34.0016     28.62     29.70    -29.04     20.00
   34.0118     28.75     29.63    -28.85     20.00
   34.0219     28.24     29.57    -29.29     20.00
   34.0321     27.55     29.50    -29.91     20.00
   34.0423     28.10     29.44    -29.30     20.00
   34.0524     27.80     29.37    -29.53     20.00
   34.0626     28.44     29.30    -28.83     20.00
   34.0728     28.44     29.24    -28.76     20.00
   34.0829     28.42     29.17    -28.72     20.00
   34.0931     28.41     29.11    -28.66     20.00
   34.1033     28.40     29.04    -28.60     20.00
   34.1134     28.54     28.98    -28.40     20.00
   34.1236     28.07     28.91    -28.81     20.00
   34.1338     27.94     28.85    -28.87     20.00
   34.1439     28.12     28.78    -28.63     20.00
   34.1541     26.71     28.72    -29.97     20.00
   34.1642     27.74     28.66    -28.88     20.00
   34.1744     27.48     28.59    -29.07     20.00
   34.1846     27.79     28.53    -28.70     20.00
   34.1947     28.23     28.47    -28.20     20.00
   34.2049     27.74     28.40    -28.62     20.00
   34.2151     27.74     28.34    -28.56     20.00
   34.2252     28.16     28.28    -28.08     20.00
   34.2354     27.95     28.21    -28.23     20.00
   34.2456     27.79     28.15    -28.32     20.00
   34.2557     27.61     28.09    -28.44     20.00
   34.2659     27.52     28.03    -28.47     20.00
   34.2761     26.86     27.97    -29.07     20.00
   34.2862     27.82     27.91    -28.05     20.00
   34.2964     27.52     27.85    -28.29     20.00
   34.3066     27.15     27.79    -28.60     20.00
   34.3167     27.55     27.73    -28.14     20.00
   34.3269     27.37     27.67    -28.26     20.00
   34.3370     26.85     27.61    -28.72     20.00
   34.3472     27.21     27.55    -28.30     20.00
   34.3574     26.95     27.49    -28.50     20.00
   34.3675     27.61     27.43    -27.78     20.00
   34.3777     27.45     27.37    -27.88     20.00
   34.3879     27.72     27.32    -27.56     20.00
   34.3980     27.25     27.26    -27.97     20.00
   34.4082     26.46     27.20    -28.70     20.00
   34.4184     27.30     27.14    -27.81     20.00
   34.4285     26.08     27.09    -28.97     20.00
   34.4387     26.91     27.03    -28.08     20.00
   34.4489     25.80     26.98    -29.14     20.00
   34.4590     27.27     26.92    -27.61     20.00
   34.4692     26.67     26.87    -28.16     20.00
   34.4793     26.52     26.81    -28.26     20.00
   34.4895     26.85     26.76    -27.87     20.00
   34.4997     27.41     26.71    -27.26     20.00
   34.5098     27.49     26.65    -27.13     20.00
   34.5200     27.70     26.60    -26.86     20.00
   34.5302     26.51     26.55    -28.00     20.00
   34.5403     26.68     26.50    -27.78     20.00
   34.5505     26.88     26.45    -27.53     20.00
   34.5607     26.55     26.39    -27.81     20.00
   34.5708     26.71     26.34    -27.60     20.00
   34.5810     27.29     26.29    -26.97     20.00
   34.5912     26.59     26.24    -27.62     20.00
   34.6013     27.29     26.20    -26.87     20.00
   34.6115     26.87     26.15    -27.24     20.00
   34.6217     27.17     26.10    -26.89     20.00
   34.6318     26.60     26.05    -27.41     20.00
   34.6420     26.41     26.00    -27.55     20.00
   34.6521     26.64     25.96    -27.28     20.00
   34.6623     25.91     25.91    -27.96     20.00
   34.6725     26.65     25.86    -27.17     20.00
   34.6826     26.49     25.82    -27.29     20.00
   34.6928     27.06     25.77    -26.67     20.00
   34.7030     26.65     25.73    -27.04     20.00
   34.7131     26.76     25.68    -26.88     20.00
   34.7233     26.65     25.64    -26.95     20.00
   34.7335     26.34     25.59    -27.22     20.00
   34.7436     26.27     25.55    -27.24     20.00
   34.7538     26.51     25.51    -26.96     20.00
   34.7640     26.37     25.47    -27.06     20.00
   34.7741     26.93     25.42    -26.46     20.00
   34.7843     27.12     25.38    -26.22     20.00
   34.7944     26.40     25.34    -26.90     20.00
   34.8046     26.34     25.30    -26.92     20.00
   34.8148     26.59     25.26    -26.63     20.00
   34.8249     26.70     25.22    -26.48     20.00
   34.8351     26.13     25.18    -27.01     20.00
   34.8453     25.73     25.14    -27.37     20.00
   34.8554     26.01     25.10    -27.06     20.00
   34.8656     26.09     25.07    -26.94     20.00
   34.8758     25.77     25.03    -27.22     20.00
   34.8859     26.50     24.99    -26.45     20.00
   34.8961     26.24     24.95    -26.68     20.00
   34.9063     27.05     24.92    -25.83     20.00
   34.9164     25.70     24.88    -27.14     20.00
   34.9266     26.66     24.85    -26.15     20.00
   34.9367     26.20     24.81    -26.57     20.00
   34.9469     25.41     24.78    -27.33     20.00
   34.9571     26.07     24.74    -26.63     20.00
   34.9672     25.00     24.71    -27.67     20.00
   34.9774     25.70     24.67    -26.94     20.00
   34.9876     26.37     24.64    -26.23     20.00
   34.9977     25.96     24.61    -26.61     20.00
   35.0079     26.15     24.58    -26.39     20.00
   35.0181     25.72     24.54    -26.79     20.00
   35.0282     25.72     24.51    -26.75     20.00
   35.0384     26.21     24.48    -26.23     20.00
   35.0486     25.89     24.45    -26.52     20.00
   35.0587     25.98     24.42    -26.40     20.00
   35.0689     26.16     24.39    -26.19     20.00
   35.0791     25.98     24.36    -26.34     20.00
   35.0892     25.96     24.33    -26.33     20.00
   35.0994     25.90     24.30    -26.36     20.00
   35.1095     26.62     24.27    -25.62     20.00
   35.1197     26.43     24.24    -25.78     20.00
   35.1299     26.18     24.22    -26.00     20.00
   35.1400     25.81     24.19    -26.34     20.00
   35.1502     25.95     24.16    -26.17     20.00
   35.1604     25.90     24.14    -26.20     20.00
   35.1705     25.34     24.11    -26.73     20.00
   35.1807     25.60     24.08    -26.44     20.00
   35.1909     25.57     24.06    -26.45     20.00
   35.2010     26.22     24.03    -25.77     20.00
   35.2112     25.45     24.01    -26.52     20.00
   35.2214     26.20     23.98    -25.74     20.00
   35.2315     25.82     23.96    -26.10     20.00
   35.2417     25.29     23.93    -26.61     20.00
   35.2518     25.29     23.91    -26.58     20.00
   35.2620     25.74     23.89    -26.11     20.00
   35.2722     26.14     23.86    -25.68     20.00
   35.2823     26.13     23.84    -25.67     20.00
   35.2925     25.23     23.82    -26.55     20.00
   35.3027     25.79     23.79    -25.97     20.00
   35.3128     25.38     23.77    -26.36     20.00
   35.3230     25.43     23.75    -26.28     20.00
   35.3332     26.57     23.73    -25.12     20.00
   35.3433     25.40     23.71    -26.27     20.00
   35.3535     25.60     23.69    -26.05     20.00
   35.3637     26.09     23.67    -25.54     20.00
   35.3738     25.30     23.65    -26.31     20.00
   35.3840     25.48     23.63    -26.11     20.00
   35.3942     25.64     23.61    -25.93     20.00
   35.4043     24.95     23.59    -26.60     20.00
   35.4145     24.98     23.57    -26.55     20.00
   35.4246     25.40     23.55    -26.11     20.00
   35.4348     25.62     23.53    -25.87     20.00
   35.4450     26.26     23.51    -25.22     20.00
   35.4551     25.95     23.50    -25.51     20.00
   35.4653     25.24     23.48    -26.20     20.00
   35.4755     25.60     23.46    -25.82     20.00
   35.4856     26.46     23.44    -24.94     20.00
   35.4958     25.78     23.43    -25.61     20.00
   35.5060     25.18     23.41    -26.19     20.00
   35.5161     26.05     23.39    -25.30     20.00
   35.5263     25.05     23.38    -26.29     20.00
   35.5365     25.53     23.36    -25.79     20.00
   35.5466     24.86     23.34    -26.45     20.00
   35.5568     25.34     23.33    -25.95     20.00
   35.5669     25.04     23.31    -26.23     20.00
   35.5771     25.65     23.30    -25.61     20.00
   35.5873     24.66     23.28    -26.58     20.00
   35.5974     25.87     23.27    -25.36     20.00
   35.6076     25.45     23.25    -25.76     20.00
   35.6178     25.03     23.24    -26.17     20.00
   35.6279     25.32     23.22    -25.87     20.00
   35.6381     25.45     23.21    -25.72     20.00
   35.6483     25.53     23.20    -25.63     20.00
   35.6584     25.56     23.18    -25.58     20.00
   35.6686     25.32     23.17    -25.81     20.00
   35.6788     24.91     23.15    -26.21     20.00
   35.6889     25.52     23.14    -25.58     20.00
   35.6991     25.24     23.13    -25.85     20.00
   35.7093     25.02     23.12    -26.06     20.00
   35.7194     25.23     23.10    -25.84     20.00
   35.7296     25.49     23.09    -25.56     20.00
   35.7397     25.46     23.08    -25.58     20.00
   35.7499     24.89     23.07    -26.14     20.00
   35.7601     25.16     23.05    -25.86     20.00
   35.7702     25.54     23.04    -25.46     20.00
   35.7804     25.24     23.03    -25.75     20.00
   35.7906     24.30     23.02    -26.68     20.00
   35.8007     25.01     23.01    -25.96     20.00
   35.8109     26.01     23.00    -24.95     20.00
   35.8211     24.87     22.99    -26.08     20.00
   35.8312     24.54     22.98    -26.40     20.00
   35.8414     25.20     22.96    -25.73     20.00
   35.8516     25.35     22.95    -25.57     20.00
   35.8617     26.01     22.94    -24.90     20.00
   35.8719     24.32     22.93    -26.57     20.00
   35.8820     25.30     22.92    -25.58     20.00
   35.8922     25.42     22.91    -25.45     20.00
   35.9024     25.66     22.90    -25.20     20.00
   35.9125     24.64     22.89    -26.21     20.00
   35.9227     25.52     22.88    -25.33     20.00
   35.9329     25.94     22.87    -24.90     20.00
   35.9430     25.73     22.86    -25.10     20.00
   35.9532     25.09     22.85    -25.73     20.00
   35.9634     25.22     22.85    -25.59     20.00
   35.9735     25.38     22.84    -25.42     20.00
   35.9837     25.59     22.83    -25.20     20.00
   35.9939     25.15     22.82    -25.63     20.00
