! WinPLOTR profile fitting results:
!   data file: G304--5-40-0.01-1000ms.xy
!    wave (A):      1.54060     1.54060     0.50000
!
!   2theta(deg.) sig_2th        d(A)   Intensity     sig_int         FWHM    FWHM_sig         ETA     ETA_sig
!------------------------------------------------------------------------------------------------------------------
   18.447159    0.000000     4.80574      143.75        4.37     0.957097    0.027369    0.553949    0.014336
   20.275238    0.039904     4.37638       30.48        3.66     1.043096    0.000000    0.553949    0.014336
   22.310986    0.000000     3.98145       78.77        4.67     1.098884    0.055842    0.553949    0.014336
   28.315582    0.000000     3.14931       39.39        2.83     1.421295    0.094482    0.553949    0.014336
   29.777569    0.000000     2.99793       43.20        4.73     3.196006    0.329035    0.553949    0.014336
   33.119255    0.000000     2.70268       14.36        2.39     1.819768    0.295321    0.553949    0.014336
   16.854635    0.000000     5.25606       45.41        3.78     2.343096    0.000000    0.553949    0.014336
   20.013577    0.000000     4.43300     1055.47       14.43     9.140387    0.131769    0.553949    0.014336
   18.539927    0.000000     4.78190       89.02        3.31     0.811458    0.023408    0.000100    0.000000
   20.223558    0.000000     4.38745       16.82        6.38     1.129524    0.241036    0.000100    0.000000
   22.345018    0.000000     3.97546       78.67        6.37     1.316015    0.062014    0.000100    0.000000
   28.400236    0.031486     3.14012       25.74        1.70     1.195830    0.074463    0.000100    0.000000
   29.829782    0.000000     2.99281       13.53        2.18     1.784357    0.000000    0.000100    0.000000
   33.302006    0.000000     2.68827        8.65        2.24     1.795976    0.367132    0.000100    0.000000
   18.832886    0.132343     4.70817      394.45       40.68     5.955798    0.246802    0.000100    0.000000
   21.023508    0.174323     4.22227      600.67       28.93    12.689486    0.377569    0.000100    0.000000
   18.510056    0.000000     4.78955      198.35        2.61     1.676941    0.000000    0.000100    0.000000
   20.494907    0.000000     4.32997       99.30        2.25     1.676941    0.000000    0.000100    0.000000
   22.296946    0.000000     3.98392      133.42        2.25     1.676941    0.000000    0.000100    0.000000
   28.303738    0.000000     3.15060       26.30        0.00     2.676941    0.000000    0.000100    0.000000
   29.844606    0.000000     2.99135       11.38        0.00     2.676941    0.000000    0.000100    0.000000
   33.265865    0.000000     2.69111        4.29        0.00     2.676941    0.000000    0.000100    0.000000
   16.864717    0.000000     5.25294      105.13        0.00     2.676941    0.000000    0.000100    0.000000
   20.077044    0.000000     4.41913      780.86       17.71    14.899985    0.293226    0.000100    0.000000
   18.535660    0.000000     4.78300      148.69        0.00     1.129147    0.000000    0.012649    0.007583
   20.292635    0.000000     4.37267       75.10        0.00     1.559086    0.000000    0.012649    0.007583
   22.309181    0.000000     3.98177       84.04        0.00     1.268270    0.000000    0.012649    0.007583
   28.508434    0.000000     3.12844       26.88        0.00     1.309265    0.000000    0.012649    0.007583
   30.012529    0.000000     2.97500       24.40        0.00     2.388785    0.000000    0.012649    0.007583
   33.275898    0.000000     2.69032       21.53        0.00     2.388785    0.000000    0.012649    0.007583
   17.089600    0.000000     5.18432       73.91        0.00     2.388785    0.000000    0.012649    0.007583
   20.405180    0.000000     4.34880      813.60        0.00    11.420357    0.000000    0.012649    0.007583
   18.532877    0.008277     4.78371      122.36        3.70     0.822055    0.025208    0.600000    0.000000
   21.000000    0.000000     4.22695       60.00        0.00     1.789712    0.000000    0.600000    0.000000
   22.522608    0.015866     3.94452      114.15        5.07     1.357117    0.052458    0.600000    0.000000
   28.250803    0.166657     3.15639      209.55       14.83     5.599751    0.226185    0.600000    0.000000
   29.960316    0.000000     2.98006      -16.87        9.31     2.789712    0.000000    0.600000    0.000000
   33.328110    0.000000     2.68622       12.93        3.38     2.789712    0.000000    0.600000    0.000000
   18.958815    0.045333     4.67718      938.38       11.34     7.433320    0.096004    0.600000    0.000000
   18.523521    0.008197     4.78610      110.89        3.28     0.829771    0.024359    0.402172    0.013164
   20.445902    0.051918     4.34023        6.83        2.12     0.490238    0.151077    0.402172    0.013164
   22.380302    0.017203     3.96927       63.60        3.31     1.034914    0.049785    0.402172    0.013164
   28.210863    0.051285     3.16076       63.48        4.31     2.244796    0.133287    0.402172    0.013164
   29.829782    0.000000     2.99281       38.78        3.72     2.730039    0.000000    0.402172    0.013164
   33.354218    0.000000     2.68418       28.30        1.47     2.730039    0.000000    0.402172    0.013164
   19.668613    0.025293     4.50997     1098.06        9.70     8.535051    0.079670    0.402172    0.013164
