 => TITLE: 
 => Data file name: C:\Users\stefano\Nextcloud2\uni\master-thesis\XRD\data\G105\G105--5-40-0.01-1000ms.xy
 => Instrm        :    1
 => Lambda(1&2)   :   1.54060  1.54060
 => Numb.of.points:      2951
 => Numb.of.peaks :         7
    2Theta     Yobs     Ycalc  Yobs-Ycal    Backg    Bragg     Posr  Intensity   FWHM    Eta
    6.0086     23.76     24.95    -28.20     20.00   18.6377     -2.25     149.78  0.7128  0.6484
    6.0187     24.04     24.96    -27.93     20.00   20.6001     -2.25      26.89  0.6388  0.6484
    6.0289     23.42     24.97    -28.55     20.00   22.5187     -2.25     111.53  1.0007  0.6484
    6.0391     23.78     24.98    -28.20     20.00   28.5278     -2.25      65.46  1.3764  0.6484
    6.0492     23.98     24.98    -28.01     20.00   30.0909     -2.25      28.41  2.6480  0.6484
    6.0594     23.67     24.99    -28.32     20.00   33.4064     -2.25      19.02  2.6480  0.6484
    6.0696     23.58     25.00    -28.42     20.00   19.6069     -2.25    1087.40  8.6229  0.6484
    6.0797     23.40     25.01    -28.61     20.00
    6.0899     23.81     25.01    -28.21     20.00
    6.1001     24.00     25.02    -28.02     20.00
    6.1102     23.20     25.03    -28.83     20.00
    6.1204     23.49     25.03    -28.55     20.00
    6.1306     23.11     25.04    -28.94     20.00
    6.1407     23.98     25.05    -28.07     20.00
    6.1509     23.38     25.06    -28.68     20.00
    6.1611     22.83     25.06    -29.24     20.00
    6.1712     23.63     25.07    -28.44     20.00
    6.1814     23.39     25.08    -28.69     20.00
    6.1915     23.49     25.09    -28.60     20.00
    6.2017     23.38     25.09    -28.72     20.00
    6.2119     23.13     25.10    -28.97     20.00
    6.2220     23.18     25.11    -28.93     20.00
    6.2322     23.07     25.12    -29.05     20.00
    6.2424     22.69     25.12    -29.44     20.00
    6.2525     23.31     25.13    -28.82     20.00
    6.2627     23.20     25.14    -28.94     20.00
    6.2729     23.52     25.15    -28.63     20.00
    6.2830     22.90     25.15    -29.26     20.00
    6.2932     22.88     25.16    -29.28     20.00
    6.3034     23.27     25.17    -28.90     20.00
    6.3135     23.41     25.18    -28.77     20.00
    6.3237     23.15     25.18    -29.04     20.00
    6.3338     22.77     25.19    -29.43     20.00
    6.3440     23.09     25.20    -29.11     20.00
    6.3542     22.51     25.21    -29.70     20.00
    6.3643     23.23     25.21    -28.99     20.00
    6.3745     22.64     25.22    -29.59     20.00
    6.3847     22.98     25.23    -29.25     20.00
    6.3948     22.84     25.24    -29.40     20.00
    6.4050     22.65     25.25    -29.60     20.00
    6.4152     22.80     25.25    -29.46     20.00
    6.4253     23.94     25.26    -28.33     20.00
    6.4355     23.43     25.27    -28.84     20.00
    6.4457     23.02     25.28    -29.26     20.00
    6.4558     23.70     25.29    -28.59     20.00
    6.4660     23.43     25.29    -28.87     20.00
    6.4762     22.63     25.30    -29.68     20.00
    6.4863     23.33     25.31    -28.98     20.00
    6.4965     23.05     25.32    -29.27     20.00
    6.5066     22.87     25.33    -29.46     20.00
    6.5168     22.79     25.33    -29.55     20.00
    6.5270     23.82     25.34    -28.53     20.00
    6.5371     23.76     25.35    -28.59     20.00
    6.5473     23.54     25.36    -28.82     20.00
    6.5575     23.39     25.37    -28.98     20.00
    6.5676     23.80     25.37    -28.58     20.00
    6.5778     23.03     25.38    -29.36     20.00
    6.5880     23.87     25.39    -28.52     20.00
    6.5981     23.22     25.40    -29.18     20.00
    6.6083     23.48     25.41    -28.93     20.00
    6.6185     23.84     25.41    -28.58     20.00
    6.6286     23.38     25.42    -29.05     20.00
    6.6388     23.24     25.43    -29.20     20.00
    6.6489     23.71     25.44    -28.73     20.00
    6.6591     23.88     25.45    -28.57     20.00
    6.6693     23.00     25.46    -29.46     20.00
    6.6794     24.11     25.46    -28.36     20.00
    6.6896     23.65     25.47    -28.83     20.00
    6.6998     22.68     25.48    -29.81     20.00
    6.7099     22.91     25.49    -29.58     20.00
    6.7201     23.46     25.50    -29.04     20.00
    6.7303     23.48     25.51    -29.03     20.00
    6.7404     23.27     25.52    -29.25     20.00
    6.7506     23.54     25.52    -28.99     20.00
    6.7608     23.03     25.53    -29.51     20.00
    6.7709     23.73     25.54    -28.82     20.00
    6.7811     23.13     25.55    -29.42     20.00
    6.7913     23.28     25.56    -29.28     20.00
    6.8014     23.63     25.57    -28.94     20.00
    6.8116     24.28     25.58    -28.30     20.00
    6.8217     23.24     25.58    -29.35     20.00
    6.8319     23.87     25.59    -28.73     20.00
    6.8421     23.49     25.60    -29.12     20.00
    6.8522     23.79     25.61    -28.83     20.00
    6.8624     24.15     25.62    -28.47     20.00
    6.8726     23.26     25.63    -29.37     20.00
    6.8827     23.88     25.64    -28.76     20.00
    6.8929     24.59     25.65    -28.06     20.00
    6.9031     23.37     25.66    -29.29     20.00
    6.9132     23.35     25.66    -29.32     20.00
    6.9234     23.87     25.67    -28.81     20.00
    6.9336     23.44     25.68    -29.25     20.00
    6.9437     23.48     25.69    -29.22     20.00
    6.9539     23.59     25.70    -29.11     20.00
    6.9640     23.45     25.71    -29.26     20.00
    6.9742     22.50     25.72    -30.22     20.00
    6.9844     24.38     25.73    -28.35     20.00
    6.9945     22.95     25.74    -29.79     20.00
    7.0047     23.50     25.75    -29.25     20.00
    7.0149     23.16     25.76    -29.60     20.00
    7.0250     23.27     25.76    -29.50     20.00
    7.0352     23.70     25.77    -29.08     20.00
    7.0454     23.66     25.78    -29.13     20.00
    7.0555     23.55     25.79    -29.25     20.00
    7.0657     24.23     25.80    -28.58     20.00
    7.0759     25.36     25.81    -27.46     20.00
    7.0860     23.25     25.82    -29.57     20.00
    7.0962     23.80     25.83    -29.03     20.00
    7.1064     24.45     25.84    -28.39     20.00
    7.1165     23.24     25.85    -29.61     20.00
    7.1267     24.49     25.86    -28.37     20.00
    7.1368     24.66     25.87    -28.21     20.00
    7.1470     23.99     25.88    -28.89     20.00
    7.1572     23.86     25.89    -29.03     20.00
    7.1673     24.10     25.90    -28.80     20.00
    7.1775     23.55     25.91    -29.36     20.00
    7.1877     24.44     25.92    -28.48     20.00
    7.1978     24.10     25.93    -28.83     20.00
    7.2080     24.03     25.94    -28.91     20.00
    7.2182     24.36     25.95    -28.59     20.00
    7.2283     24.57     25.96    -28.39     20.00
    7.2385     23.82     25.97    -29.15     20.00
    7.2487     24.69     25.98    -28.29     20.00
    7.2588     24.53     25.98    -28.46     20.00
    7.2690     24.21     25.99    -28.79     20.00
    7.2791     24.91     26.00    -28.10     20.00
    7.2893     25.04     26.01    -27.98     20.00
    7.2995     24.63     26.02    -28.40     20.00
    7.3096     24.65     26.03    -28.39     20.00
    7.3198     25.01     26.04    -28.04     20.00
    7.3300     24.94     26.05    -28.12     20.00
    7.3401     23.83     26.07    -29.24     20.00
    7.3503     24.60     26.08    -28.48     20.00
    7.3605     24.88     26.09    -28.21     20.00
    7.3706     24.87     26.10    -28.23     20.00
    7.3808     24.69     26.11    -28.42     20.00
    7.3910     24.95     26.12    -28.17     20.00
    7.4011     25.41     26.13    -27.72     20.00
    7.4113     24.66     26.14    -28.48     20.00
    7.4215     24.64     26.15    -28.51     20.00
    7.4316     25.29     26.16    -27.87     20.00
    7.4418     25.22     26.17    -27.95     20.00
    7.4519     24.52     26.18    -28.66     20.00
    7.4621     25.15     26.19    -28.04     20.00
    7.4723     25.16     26.20    -28.04     20.00
    7.4824     24.93     26.21    -28.28     20.00
    7.4926     24.65     26.22    -28.57     20.00
    7.5028     24.61     26.23    -28.63     20.00
    7.5129     25.54     26.24    -27.71     20.00
    7.5231     25.29     26.25    -27.97     20.00
    7.5333     25.12     26.26    -28.15     20.00
    7.5434     24.56     26.27    -28.72     20.00
    7.5536     25.85     26.28    -27.44     20.00
    7.5638     25.66     26.30    -27.64     20.00
    7.5739     24.85     26.31    -28.46     20.00
    7.5841     25.57     26.32    -27.75     20.00
    7.5942     25.43     26.33    -27.90     20.00
    7.6044     25.64     26.34    -27.70     20.00
    7.6146     25.55     26.35    -27.80     20.00
    7.6247     25.34     26.36    -28.03     20.00
    7.6349     24.35     26.37    -29.03     20.00
    7.6451     25.09     26.38    -28.30     20.00
    7.6552     25.05     26.39    -28.35     20.00
    7.6654     24.79     26.41    -28.62     20.00
    7.6756     24.75     26.42    -28.67     20.00
    7.6857     25.65     26.43    -27.78     20.00
    7.6959     25.07     26.44    -28.37     20.00
    7.7061     25.16     26.45    -28.29     20.00
    7.7162     26.49     26.46    -26.98     20.00
    7.7264     25.37     26.47    -28.11     20.00
    7.7365     25.02     26.48    -28.47     20.00
    7.7467     25.18     26.50    -28.32     20.00
    7.7569     25.74     26.51    -27.77     20.00
    7.7670     25.16     26.52    -28.36     20.00
    7.7772     25.45     26.53    -28.09     20.00
    7.7874     25.51     26.54    -28.04     20.00
    7.7975     25.55     26.55    -28.01     20.00
    7.8077     25.52     26.57    -28.05     20.00
    7.8179     25.09     26.58    -28.49     20.00
    7.8280     25.51     26.59    -28.08     20.00
    7.8382     26.44     26.60    -27.17     20.00
    7.8484     25.41     26.61    -28.21     20.00
    7.8585     26.47     26.62    -27.16     20.00
    7.8687     25.90     26.64    -27.74     20.00
    7.8789     25.69     26.65    -27.96     20.00
    7.8890     26.78     26.66    -26.88     20.00
    7.8992     26.09     26.67    -27.59     20.00
    7.9093     26.09     26.68    -27.60     20.00
    7.9195     26.36     26.70    -27.34     20.00
    7.9297     26.36     26.71    -27.35     20.00
    7.9398     26.88     26.72    -26.85     20.00
    7.9500     26.32     26.73    -27.42     20.00
    7.9602     26.48     26.75    -27.27     20.00
    7.9703     25.93     26.76    -27.83     20.00
    7.9805     26.30     26.77    -27.47     20.00
    7.9907     25.84     26.78    -27.95     20.00
    8.0008     26.12     26.80    -27.68     20.00
    8.0110     26.52     26.81    -27.29     20.00
    8.0212     26.60     26.82    -27.22     20.00
    8.0313     25.73     26.83    -28.11     20.00
    8.0415     26.74     26.85    -27.11     20.00
    8.0516     26.90     26.86    -26.96     20.00
    8.0618     25.13     26.87    -28.74     20.00
    8.0720     26.23     26.88    -27.66     20.00
    8.0821     25.52     26.90    -28.38     20.00
    8.0923     25.65     26.91    -28.26     20.00
    8.1025     25.96     26.92    -27.97     20.00
    8.1126     26.51     26.93    -27.43     20.00
    8.1228     26.03     26.95    -27.92     20.00
    8.1330     26.23     26.96    -27.73     20.00
    8.1431     26.55     26.97    -27.43     20.00
    8.1533     25.74     26.99    -28.25     20.00
    8.1635     26.30     27.00    -27.70     20.00
    8.1736     25.69     27.01    -28.33     20.00
    8.1838     26.00     27.03    -28.03     20.00
    8.1940     27.26     27.04    -26.78     20.00
    8.2041     26.62     27.05    -27.44     20.00
    8.2143     26.59     27.07    -27.48     20.00
    8.2244     27.26     27.08    -26.82     20.00
    8.2346     25.96     27.09    -28.14     20.00
    8.2448     27.32     27.11    -26.79     20.00
    8.2549     26.95     27.12    -27.17     20.00
    8.2651     27.27     27.13    -26.87     20.00
    8.2753     27.96     27.15    -26.19     20.00
    8.2854     27.30     27.16    -26.86     20.00
    8.2956     27.48     27.17    -26.70     20.00
    8.3058     27.37     27.19    -26.82     20.00
    8.3159     27.07     27.20    -27.14     20.00
    8.3261     26.74     27.22    -27.48     20.00
    8.3363     27.36     27.23    -26.87     20.00
    8.3464     27.27     27.24    -26.98     20.00
    8.3566     26.74     27.26    -27.52     20.00
    8.3667     27.13     27.27    -27.15     20.00
    8.3769     28.13     27.29    -26.16     20.00
    8.3871     27.32     27.30    -26.98     20.00
    8.3972     26.96     27.31    -27.36     20.00
    8.4074     27.51     27.33    -26.82     20.00
    8.4176     26.94     27.34    -27.41     20.00
    8.4277     26.91     27.36    -27.45     20.00
    8.4379     27.88     27.37    -26.50     20.00
    8.4481     27.38     27.39    -27.01     20.00
    8.4582     27.31     27.40    -27.09     20.00
    8.4684     28.52     27.42    -25.90     20.00
    8.4786     27.26     27.43    -27.17     20.00
    8.4887     27.29     27.44    -27.16     20.00
    8.4989     27.54     27.46    -26.92     20.00
    8.5091     28.07     27.47    -26.41     20.00
    8.5192     27.34     27.49    -27.15     20.00
    8.5294     28.24     27.50    -26.27     20.00
    8.5395     28.29     27.52    -26.23     20.00
    8.5497     27.63     27.53    -26.91     20.00
    8.5599     28.18     27.55    -26.37     20.00
    8.5700     27.89     27.56    -26.68     20.00
    8.5802     27.93     27.58    -26.65     20.00
    8.5904     27.55     27.59    -27.05     20.00
    8.6005     27.93     27.61    -26.68     20.00
    8.6107     27.25     27.62    -27.38     20.00
    8.6209     27.66     27.64    -26.98     20.00
    8.6310     28.26     27.66    -26.40     20.00
    8.6412     28.07     27.67    -26.60     20.00
    8.6514     27.07     27.69    -27.62     20.00
    8.6615     28.23     27.70    -26.48     20.00
    8.6717     27.87     27.72    -26.85     20.00
    8.6818     27.38     27.73    -27.36     20.00
    8.6920     27.87     27.75    -26.88     20.00
    8.7022     27.47     27.76    -27.30     20.00
    8.7123     28.19     27.78    -26.59     20.00
    8.7225     28.10     27.80    -26.70     20.00
    8.7327     28.10     27.81    -26.72     20.00
    8.7428     28.32     27.83    -26.51     20.00
    8.7530     28.07     27.84    -26.78     20.00
    8.7632     28.62     27.86    -26.24     20.00
    8.7733     28.23     27.88    -26.65     20.00
    8.7835     28.46     27.89    -26.44     20.00
    8.7937     28.48     27.91    -26.43     20.00
    8.8038     28.30     27.93    -26.63     20.00
    8.8140     28.46     27.94    -26.49     20.00
    8.8242     28.48     27.96    -26.48     20.00
    8.8343     28.80     27.97    -26.18     20.00
    8.8445     29.07     27.99    -25.93     20.00
    8.8546     27.93     28.01    -27.08     20.00
    8.8648     28.39     28.02    -26.64     20.00
    8.8750     28.71     28.04    -26.34     20.00
    8.8851     28.16     28.06    -26.90     20.00
    8.8953     28.23     28.08    -26.85     20.00
    8.9055     27.50     28.09    -27.60     20.00
    8.9156     27.92     28.11    -27.19     20.00
    8.9258     28.44     28.13    -26.69     20.00
    8.9360     28.97     28.14    -26.18     20.00
    8.9461     28.98     28.16    -26.18     20.00
    8.9563     28.84     28.18    -26.34     20.00
    8.9665     29.21     28.20    -25.99     20.00
    8.9766     28.24     28.21    -26.98     20.00
    8.9868     29.11     28.23    -26.12     20.00
    8.9969     29.03     28.25    -26.22     20.00
    9.0071     29.50     28.27    -25.77     20.00
    9.0173     29.43     28.28    -25.86     20.00
    9.0274     28.84     28.30    -26.47     20.00
    9.0376     28.62     28.32    -26.70     20.00
    9.0478     29.41     28.34    -25.93     20.00
    9.0579     30.03     28.35    -25.33     20.00
    9.0681     28.56     28.37    -26.82     20.00
    9.0783     28.47     28.39    -26.92     20.00
    9.0884     29.79     28.41    -25.62     20.00
    9.0986     29.53     28.43    -25.90     20.00
    9.1088     29.78     28.45    -25.67     20.00
    9.1189     28.84     28.46    -26.63     20.00
    9.1291     29.20     28.48    -26.29     20.00
    9.1393     29.26     28.50    -26.24     20.00
    9.1494     29.21     28.52    -26.31     20.00
    9.1596     29.76     28.54    -25.78     20.00
    9.1697     29.89     28.56    -25.67     20.00
    9.1799     29.48     28.58    -26.10     20.00
    9.1901     28.59     28.59    -27.01     20.00
    9.2002     29.90     28.61    -25.72     20.00
    9.2104     30.08     28.63    -25.56     20.00
    9.2206     28.73     28.65    -26.93     20.00
    9.2307     29.84     28.67    -25.83     20.00
    9.2409     28.93     28.69    -26.76     20.00
    9.2511     28.31     28.71    -27.40     20.00
    9.2612     29.46     28.73    -26.27     20.00
    9.2714     29.58     28.75    -26.17     20.00
    9.2816     29.38     28.77    -26.39     20.00
    9.2917     29.79     28.79    -26.00     20.00
    9.3019     29.81     28.81    -26.00     20.00
    9.3120     29.90     28.83    -25.93     20.00
    9.3222     29.80     28.85    -26.05     20.00
    9.3324     30.21     28.87    -25.66     20.00
    9.3425     29.67     28.89    -26.22     20.00
    9.3527     30.17     28.91    -25.74     20.00
    9.3629     30.33     28.93    -25.60     20.00
    9.3730     29.83     28.95    -26.12     20.00
    9.3832     30.35     28.97    -25.62     20.00
    9.3934     29.89     28.99    -26.10     20.00
    9.4035     29.98     29.01    -26.03     20.00
    9.4137     30.16     29.03    -25.87     20.00
    9.4239     29.96     29.05    -26.09     20.00
    9.4340     29.94     29.07    -26.13     20.00
    9.4442     30.06     29.09    -26.03     20.00
    9.4544     30.59     29.11    -25.52     20.00
    9.4645     29.86     29.13    -26.27     20.00
    9.4747     29.01     29.15    -27.15     20.00
    9.4848     30.97     29.17    -25.21     20.00
    9.4950     30.65     29.19    -25.55     20.00
    9.5052     30.43     29.22    -25.79     20.00
    9.5153     30.34     29.24    -25.90     20.00
    9.5255     29.63     29.26    -26.63     20.00
    9.5357     30.04     29.28    -26.24     20.00
    9.5458     31.09     29.30    -25.21     20.00
    9.5560     30.41     29.32    -25.92     20.00
    9.5662     29.95     29.34    -26.40     20.00
    9.5763     31.29     29.37    -25.08     20.00
    9.5865     29.50     29.39    -26.89     20.00
    9.5967     29.48     29.41    -26.93     20.00
    9.6068     30.23     29.43    -26.21     20.00
    9.6170     30.16     29.45    -26.30     20.00
    9.6271     30.21     29.48    -26.27     20.00
    9.6373     30.63     29.50    -25.87     20.00
    9.6475     30.00     29.52    -26.52     20.00
    9.6576     30.46     29.54    -26.09     20.00
    9.6678     30.55     29.57    -26.02     20.00
    9.6780     30.24     29.59    -26.35     20.00
    9.6881     30.63     29.61    -25.98     20.00
    9.6983     30.20     29.63    -26.44     20.00
    9.7085     31.86     29.66    -24.80     20.00
    9.7186     30.43     29.68    -26.25     20.00
    9.7288     30.32     29.70    -26.39     20.00
    9.7390     30.07     29.73    -26.66     20.00
    9.7491     30.55     29.75    -26.20     20.00
    9.7593     31.02     29.77    -25.76     20.00
    9.7694     30.39     29.80    -26.41     20.00
    9.7796     31.27     29.82    -25.55     20.00
    9.7898     30.82     29.84    -26.03     20.00
    9.7999     30.80     29.87    -26.07     20.00
    9.8101     30.05     29.89    -26.84     20.00
    9.8203     30.42     29.91    -26.50     20.00
    9.8304     30.76     29.94    -26.18     20.00
    9.8406     30.62     29.96    -26.35     20.00
    9.8508     31.21     29.99    -25.78     20.00
    9.8609     30.97     30.01    -26.04     20.00
    9.8711     31.57     30.04    -25.47     20.00
    9.8813     32.09     30.06    -24.97     20.00
    9.8914     31.38     30.08    -25.71     20.00
    9.9016     31.27     30.11    -25.84     20.00
    9.9118     30.68     30.13    -26.46     20.00
    9.9219     31.32     30.16    -25.84     20.00
    9.9321     30.70     30.18    -26.49     20.00
    9.9422     31.31     30.21    -25.90     20.00
    9.9524     31.22     30.23    -26.02     20.00
    9.9626     32.29     30.26    -24.97     20.00
    9.9727     31.29     30.28    -26.00     20.00
    9.9829     31.50     30.31    -25.81     20.00
    9.9931     31.18     30.33    -26.16     20.00
   10.0032     30.86     30.36    -26.50     20.00
   10.0134     30.99     30.39    -26.40     20.00
   10.0236     31.99     30.41    -25.43     20.00
   10.0337     32.45     30.44    -24.99     20.00
   10.0439     30.82     30.46    -26.65     20.00
   10.0541     31.79     30.49    -25.70     20.00
   10.0642     31.60     30.52    -25.92     20.00
   10.0744     31.41     30.54    -26.14     20.00
   10.0845     31.35     30.57    -26.22     20.00
   10.0947     31.80     30.60    -25.80     20.00
   10.1049     32.27     30.62    -25.36     20.00
   10.1150     31.60     30.65    -26.05     20.00
   10.1252     32.03     30.68    -25.65     20.00
   10.1354     32.32     30.70    -25.39     20.00
   10.1455     32.04     30.73    -25.69     20.00
   10.1557     30.79     30.76    -26.97     20.00
   10.1659     31.92     30.78    -25.87     20.00
   10.1760     33.16     30.81    -24.66     20.00
   10.1862     32.05     30.84    -25.79     20.00
   10.1964     32.90     30.87    -24.97     20.00
   10.2065     32.18     30.89    -25.72     20.00
   10.2167     31.98     30.92    -25.95     20.00
   10.2269     32.79     30.95    -25.16     20.00
   10.2370     32.16     30.98    -25.82     20.00
   10.2472     32.29     31.01    -25.72     20.00
   10.2573     32.05     31.03    -25.99     20.00
   10.2675     33.07     31.06    -25.00     20.00
   10.2777     32.11     31.09    -25.99     20.00
   10.2878     32.77     31.12    -25.35     20.00
   10.2980     32.67     31.15    -25.48     20.00
   10.3082     32.46     31.18    -25.72     20.00
   10.3183     31.63     31.21    -26.58     20.00
   10.3285     32.35     31.24    -25.89     20.00
   10.3387     32.07     31.26    -26.20     20.00
   10.3488     32.00     31.29    -26.30     20.00
   10.3590     32.28     31.32    -26.05     20.00
   10.3692     32.80     31.35    -25.56     20.00
   10.3793     32.65     31.38    -25.74     20.00
   10.3895     32.08     31.41    -26.34     20.00
   10.3996     32.42     31.44    -26.03     20.00
   10.4098     32.20     31.47    -26.28     20.00
   10.4200     31.44     31.50    -27.07     20.00
   10.4301     32.05     31.53    -26.49     20.00
   10.4403     31.91     31.56    -26.66     20.00
   10.4505     31.70     31.59    -26.90     20.00
   10.4606     32.89     31.62    -25.74     20.00
   10.4708     33.10     31.65    -25.56     20.00
   10.4810     31.92     31.68    -26.77     20.00
   10.4911     32.48     31.72    -26.24     20.00
   10.5013     33.42     31.75    -25.33     20.00
   10.5115     33.02     31.78    -25.76     20.00
   10.5216     33.40     31.81    -25.41     20.00
   10.5318     33.27     31.84    -25.57     20.00
   10.5420     33.23     31.87    -25.65     20.00
   10.5521     33.22     31.90    -25.69     20.00
   10.5623     33.19     31.94    -25.75     20.00
   10.5724     33.42     31.97    -25.55     20.00
   10.5826     32.14     32.00    -26.86     20.00
   10.5928     33.18     32.03    -25.86     20.00
   10.6029     32.15     32.06    -26.92     20.00
   10.6131     32.99     32.10    -26.11     20.00
   10.6233     32.97     32.13    -26.16     20.00
   10.6334     31.87     32.16    -27.30     20.00
   10.6436     32.66     32.19    -26.54     20.00
   10.6538     33.16     32.23    -26.07     20.00
   10.6639     32.84     32.26    -26.42     20.00
   10.6741     33.76     32.29    -25.54     20.00
   10.6843     33.55     32.33    -25.78     20.00
   10.6944     34.71     32.36    -24.65     20.00
   10.7046     32.45     32.39    -26.95     20.00
   10.7147     32.99     32.43    -26.44     20.00
   10.7249     33.38     32.46    -26.08     20.00
   10.7351     32.88     32.50    -26.62     20.00
   10.7452     33.56     32.53    -25.97     20.00
   10.7554     33.63     32.56    -25.94     20.00
   10.7656     33.23     32.60    -26.37     20.00
   10.7757     33.70     32.63    -25.94     20.00
   10.7859     34.17     32.67    -25.50     20.00
   10.7961     32.98     32.70    -26.73     20.00
   10.8062     33.82     32.74    -25.92     20.00
   10.8164     33.24     32.77    -26.54     20.00
   10.8266     33.73     32.81    -26.08     20.00
   10.8367     33.90     32.84    -25.95     20.00
   10.8469     32.12     32.88    -27.76     20.00
   10.8571     33.73     32.91    -26.19     20.00
   10.8672     33.02     32.95    -26.93     20.00
   10.8774     34.77     32.98    -25.22     20.00
   10.8875     33.72     33.02    -26.30     20.00
   10.8977     34.59     33.06    -25.47     20.00
   10.9079     35.01     33.09    -25.09     20.00
   10.9180     33.70     33.13    -26.43     20.00
   10.9282     34.14     33.17    -26.03     20.00
   10.9384     34.09     33.20    -26.12     20.00
   10.9485     33.96     33.24    -26.28     20.00
   10.9587     34.52     33.28    -25.76     20.00
   10.9689     34.77     33.31    -25.55     20.00
   10.9790     33.55     33.35    -26.80     20.00
   10.9892     33.98     33.39    -26.41     20.00
   10.9994     34.01     33.43    -26.42     20.00
   11.0095     33.53     33.46    -26.94     20.00
   11.0197     34.20     33.50    -26.31     20.00
   11.0298     35.13     33.54    -25.41     20.00
   11.0400     34.57     33.58    -26.01     20.00
   11.0502     33.85     33.62    -26.77     20.00
   11.0603     34.99     33.65    -25.67     20.00
   11.0705     34.63     33.69    -26.07     20.00
   11.0807     33.90     33.73    -26.84     20.00
   11.0908     34.76     33.77    -26.01     20.00
   11.1010     34.30     33.81    -26.51     20.00
   11.1112     34.80     33.85    -26.05     20.00
   11.1213     34.25     33.89    -26.64     20.00
   11.1315     33.63     33.93    -27.30     20.00
   11.1417     34.98     33.97    -25.99     20.00
   11.1518     35.43     34.01    -25.58     20.00
   11.1620     34.46     34.05    -26.59     20.00
   11.1722     34.43     34.09    -26.66     20.00
   11.1823     34.30     34.13    -26.83     20.00
   11.1925     36.17     34.17    -25.00     20.00
   11.2026     35.14     34.21    -26.07     20.00
   11.2128     35.09     34.25    -26.16     20.00
   11.2230     34.58     34.29    -26.71     20.00
   11.2331     34.91     34.33    -26.42     20.00
   11.2433     34.93     34.37    -26.45     20.00
   11.2535     34.51     34.41    -26.91     20.00
   11.2636     34.41     34.45    -27.05     20.00
   11.2738     35.01     34.50    -26.49     20.00
   11.2840     33.82     34.54    -27.72     20.00
   11.2941     35.23     34.58    -26.35     20.00
   11.3043     35.55     34.62    -26.08     20.00
   11.3145     34.27     34.66    -27.40     20.00
   11.3246     35.90     34.71    -25.81     20.00
   11.3348     35.14     34.75    -26.61     20.00
   11.3449     36.02     34.79    -25.78     20.00
   11.3551     36.07     34.84    -25.77     20.00
   11.3653     35.73     34.88    -26.15     20.00
   11.3754     35.77     34.92    -26.16     20.00
   11.3856     35.71     34.97    -26.26     20.00
   11.3958     36.60     35.01    -25.41     20.00
   11.4059     35.30     35.05    -26.76     20.00
   11.4161     35.38     35.10    -26.72     20.00
   11.4263     35.85     35.14    -26.29     20.00
   11.4364     34.99     35.18    -27.20     20.00
   11.4466     35.45     35.23    -26.78     20.00
   11.4568     35.79     35.27    -26.49     20.00
   11.4669     36.60     35.32    -25.72     20.00
   11.4771     35.62     35.36    -26.75     20.00
   11.4873     35.86     35.41    -26.55     20.00
   11.4974     35.38     35.45    -27.08     20.00
   11.5076     35.77     35.50    -26.73     20.00
   11.5177     36.01     35.54    -26.54     20.00
   11.5279     35.52     35.59    -27.07     20.00
   11.5381     35.59     35.64    -27.05     20.00
   11.5482     35.86     35.68    -26.83     20.00
   11.5584     35.51     35.73    -27.22     20.00
   11.5686     36.65     35.78    -26.13     20.00
   11.5787     36.24     35.82    -26.59     20.00
   11.5889     36.02     35.87    -26.85     20.00
   11.5991     36.25     35.92    -26.67     20.00
   11.6092     36.31     35.96    -26.66     20.00
   11.6194     36.82     36.01    -26.20     20.00
   11.6296     36.73     36.06    -26.33     20.00
   11.6397     36.34     36.11    -26.77     20.00
   11.6499     36.31     36.15    -26.85     20.00
   11.6600     36.93     36.20    -26.28     20.00
   11.6702     36.45     36.25    -26.80     20.00
   11.6804     36.32     36.30    -26.98     20.00
   11.6905     37.37     36.35    -25.98     20.00
   11.7007     36.32     36.40    -27.08     20.00
   11.7109     37.22     36.45    -26.23     20.00
   11.7210     36.51     36.49    -26.99     20.00
   11.7312     37.05     36.54    -26.50     20.00
   11.7414     37.56     36.59    -26.04     20.00
   11.7515     36.11     36.64    -27.54     20.00
   11.7617     37.91     36.69    -25.79     20.00
   11.7719     37.30     36.74    -26.45     20.00
   11.7820     36.63     36.79    -27.17     20.00
   11.7922     36.71     36.84    -27.14     20.00
   11.8023     36.86     36.89    -27.04     20.00
   11.8125     36.70     36.95    -27.25     20.00
   11.8227     37.46     37.00    -26.54     20.00
   11.8328     36.47     37.05    -27.58     20.00
   11.8430     36.20     37.10    -27.90     20.00
   11.8532     38.15     37.15    -26.00     20.00
   11.8633     37.72     37.20    -26.49     20.00
   11.8735     37.02     37.25    -27.24     20.00
   11.8837     37.53     37.31    -26.78     20.00
   11.8938     37.80     37.36    -26.56     20.00
   11.9040     37.82     37.41    -26.60     20.00
   11.9142     37.74     37.46    -26.73     20.00
   11.9243     37.00     37.52    -27.52     20.00
   11.9345     38.48     37.57    -26.09     20.00
   11.9447     38.10     37.62    -26.53     20.00
   11.9548     37.36     37.68    -27.32     20.00
   11.9650     37.36     37.73    -27.37     20.00
   11.9751     37.94     37.78    -26.85     20.00
   11.9853     37.50     37.84    -27.34     20.00
   11.9955     38.16     37.89    -26.74     20.00
   12.0056     37.69     37.95    -27.26     20.00
   12.0158     39.04     38.00    -25.97     20.00
   12.0260     38.30     38.06    -26.76     20.00
   12.0361     39.24     38.11    -25.88     20.00
   12.0463     38.35     38.17    -26.82     20.00
   12.0565     38.38     38.22    -26.85     20.00
   12.0666     38.02     38.28    -27.26     20.00
   12.0768     38.71     38.33    -26.63     20.00
   12.0870     38.13     38.39    -27.26     20.00
   12.0971     38.82     38.45    -26.63     20.00
   12.1073     38.48     38.50    -27.03     20.00
   12.1174     37.73     38.56    -27.83     20.00
   12.1276     38.36     38.62    -27.26     20.00
   12.1378     38.05     38.67    -27.63     20.00
   12.1479     37.64     38.73    -28.09     20.00
   12.1581     39.02     38.79    -26.77     20.00
   12.1683     38.48     38.85    -27.37     20.00
   12.1784     38.27     38.90    -27.64     20.00
   12.1886     39.02     38.96    -26.95     20.00
   12.1988     38.98     39.02    -27.04     20.00
   12.2089     39.84     39.08    -26.24     20.00
   12.2191     39.43     39.14    -26.71     20.00
   12.2293     39.67     39.20    -26.53     20.00
   12.2394     39.17     39.26    -27.09     20.00
   12.2496     38.62     39.31    -27.70     20.00
   12.2598     40.10     39.37    -26.28     20.00
   12.2699     39.40     39.43    -27.04     20.00
   12.2801     40.04     39.49    -26.46     20.00
   12.2902     39.29     39.55    -27.27     20.00
   12.3004     38.60     39.61    -28.02     20.00
   12.3106     40.49     39.68    -26.19     20.00
   12.3207     38.87     39.74    -27.87     20.00
   12.3309     39.76     39.80    -27.04     20.00
   12.3411     39.36     39.86    -27.50     20.00
   12.3512     39.04     39.92    -27.88     20.00
   12.3614     39.63     39.98    -27.36     20.00
   12.3716     39.30     40.04    -27.75     20.00
   12.3817     40.04     40.11    -27.07     20.00
   12.3919     39.55     40.17    -27.62     20.00
   12.4021     40.97     40.23    -26.26     20.00
   12.4122     40.16     40.29    -27.14     20.00
   12.4224     39.75     40.36    -27.61     20.00
   12.4325     40.18     40.42    -27.24     20.00
   12.4427     41.15     40.48    -26.34     20.00
   12.4529     41.07     40.55    -26.48     20.00
   12.4630     39.45     40.61    -28.16     20.00
   12.4732     39.93     40.67    -27.75     20.00
   12.4834     40.85     40.74    -26.89     20.00
   12.4935     40.98     40.80    -26.83     20.00
   12.5037     40.15     40.87    -27.72     20.00
   12.5139     40.12     40.93    -27.82     20.00
   12.5240     40.96     41.00    -27.04     20.00
   12.5342     40.69     41.06    -27.38     20.00
   12.5444     40.48     41.13    -27.65     20.00
   12.5545     41.07     41.19    -27.13     20.00
   12.5647     40.79     41.26    -27.47     20.00
   12.5749     40.19     41.33    -28.14     20.00
   12.5850     41.60     41.39    -26.80     20.00
   12.5952     40.51     41.46    -27.95     20.00
   12.6053     40.87     41.53    -27.66     20.00
   12.6155     40.94     41.59    -27.66     20.00
   12.6257     40.39     41.66    -28.28     20.00
   12.6358     41.52     41.73    -27.21     20.00
   12.6460     41.98     41.80    -26.82     20.00
   12.6562     41.00     41.87    -27.87     20.00
   12.6663     41.54     41.93    -27.40     20.00
   12.6765     41.68     42.00    -27.33     20.00
   12.6867     41.80     42.07    -27.28     20.00
   12.6968     41.07     42.14    -28.07     20.00
   12.7070     41.24     42.21    -27.97     20.00
   12.7172     41.66     42.28    -27.62     20.00
   12.7273     41.95     42.35    -27.40     20.00
   12.7375     42.10     42.42    -27.32     20.00
   12.7476     42.63     42.49    -26.86     20.00
   12.7578     41.98     42.56    -27.58     20.00
   12.7680     42.01     42.63    -27.62     20.00
   12.7781     43.15     42.70    -26.55     20.00
   12.7883     41.85     42.77    -27.93     20.00
   12.7985     42.52     42.84    -27.33     20.00
   12.8086     42.68     42.91    -27.24     20.00
   12.8188     42.20     42.99    -27.79     20.00
   12.8290     42.71     43.06    -27.35     20.00
   12.8391     42.63     43.13    -27.50     20.00
   12.8493     41.99     43.20    -28.22     20.00
   12.8595     42.01     43.28    -28.27     20.00
   12.8696     42.63     43.35    -27.72     20.00
   12.8798     41.35     43.42    -29.08     20.00
   12.8900     41.88     43.50    -28.62     20.00
   12.9001     41.97     43.57    -28.60     20.00
   12.9103     43.87     43.64    -26.78     20.00
   12.9204     42.97     43.72    -27.75     20.00
   12.9306     42.52     43.79    -28.28     20.00
   12.9408     43.70     43.87    -27.17     20.00
   12.9509     43.65     43.94    -27.30     20.00
   12.9611     43.18     44.02    -27.84     20.00
   12.9713     43.12     44.09    -27.98     20.00
   12.9814     44.33     44.17    -26.84     20.00
   12.9916     43.73     44.24    -27.52     20.00
   13.0018     43.54     44.32    -27.78     20.00
   13.0119     43.13     44.40    -28.27     20.00
   13.0221     43.54     44.47    -27.94     20.00
   13.0323     42.82     44.55    -28.73     20.00
   13.0424     43.85     44.63    -27.78     20.00
   13.0526     43.60     44.70    -28.11     20.00
   13.0627     43.71     44.78    -28.08     20.00
   13.0729     43.55     44.86    -28.31     20.00
   13.0831     44.32     44.94    -27.62     20.00
   13.0932     43.92     45.02    -28.10     20.00
   13.1034     45.31     45.09    -26.79     20.00
   13.1136     44.27     45.17    -27.91     20.00
   13.1237     43.17     45.25    -29.09     20.00
   13.1339     44.80     45.33    -27.54     20.00
   13.1441     44.23     45.41    -28.19     20.00
   13.1542     45.19     45.49    -27.31     20.00
   13.1644     44.52     45.57    -28.06     20.00
   13.1746     43.92     45.65    -28.74     20.00
   13.1847     45.57     45.73    -27.17     20.00
   13.1949     44.65     45.81    -28.17     20.00
   13.2051     44.42     45.89    -28.48     20.00
   13.2152     46.01     45.98    -26.97     20.00
   13.2254     45.31     46.06    -27.75     20.00
   13.2355     44.48     46.14    -28.66     20.00
   13.2457     45.09     46.22    -28.13     20.00
   13.2559     45.71     46.30    -27.60     20.00
   13.2660     45.52     46.39    -27.87     20.00
   13.2762     45.92     46.47    -27.55     20.00
   13.2864     45.18     46.55    -28.38     20.00
   13.2965     46.52     46.63    -27.12     20.00
   13.3067     44.73     46.72    -28.99     20.00
   13.3169     45.15     46.80    -28.66     20.00
   13.3270     45.04     46.89    -28.85     20.00
   13.3372     46.24     46.97    -27.74     20.00
   13.3474     46.26     47.06    -27.80     20.00
   13.3575     46.83     47.14    -27.31     20.00
   13.3677     46.16     47.23    -28.07     20.00
   13.3778     46.68     47.31    -27.63     20.00
   13.3880     45.78     47.40    -28.62     20.00
   13.3982     45.18     47.48    -29.31     20.00
   13.4083     46.65     47.57    -27.92     20.00
   13.4185     47.28     47.66    -27.38     20.00
   13.4287     45.74     47.74    -29.01     20.00
   13.4388     46.91     47.83    -27.92     20.00
   13.4490     47.51     47.92    -27.41     20.00
   13.4592     46.79     48.00    -28.22     20.00
   13.4693     46.73     48.09    -28.36     20.00
   13.4795     47.18     48.18    -28.00     20.00
   13.4897     46.80     48.27    -28.47     20.00
   13.4998     47.32     48.36    -28.04     20.00
   13.5100     47.15     48.44    -28.30     20.00
   13.5201     47.48     48.53    -28.06     20.00
   13.5303     48.02     48.62    -27.61     20.00
   13.5405     48.91     48.71    -26.81     20.00
   13.5506     48.40     48.80    -27.41     20.00
   13.5608     47.64     48.89    -28.26     20.00
   13.5710     46.73     48.98    -29.26     20.00
   13.5811     47.24     49.07    -28.84     20.00
   13.5913     47.21     49.16    -28.96     20.00
   13.6015     47.35     49.26    -28.91     20.00
   13.6116     49.34     49.35    -27.01     20.00
   13.6218     48.50     49.44    -27.94     20.00
   13.6320     47.71     49.53    -28.82     20.00
   13.6421     48.26     49.62    -28.37     20.00
   13.6523     47.23     49.71    -29.49     20.00
   13.6625     48.64     49.81    -28.17     20.00
   13.6726     48.85     49.90    -28.05     20.00
   13.6828     48.10     49.99    -28.90     20.00
   13.6929     47.57     50.09    -29.52     20.00
   13.7031     49.35     50.18    -27.83     20.00
   13.7133     49.62     50.27    -27.66     20.00
   13.7234     48.95     50.37    -28.42     20.00
   13.7336     49.82     50.46    -27.65     20.00
   13.7438     49.37     50.56    -28.19     20.00
   13.7539     48.51     50.65    -29.15     20.00
   13.7641     49.81     50.75    -27.94     20.00
   13.7743     48.74     50.84    -29.11     20.00
   13.7844     49.31     50.94    -28.63     20.00
   13.7946     49.27     51.04    -28.77     20.00
   13.8048     49.27     51.13    -28.87     20.00
   13.8149     49.13     51.23    -29.10     20.00
   13.8251     49.57     51.33    -28.76     20.00
   13.8352     50.51     51.42    -27.92     20.00
   13.8454     50.18     51.52    -28.34     20.00
   13.8556     49.60     51.62    -29.02     20.00
   13.8657     50.20     51.72    -28.52     20.00
   13.8759     49.83     51.82    -28.99     20.00
   13.8861     51.10     51.91    -27.82     20.00
   13.8962     50.46     52.01    -28.56     20.00
   13.9064     51.31     52.11    -27.81     20.00
   13.9166     51.69     52.21    -27.53     20.00
   13.9267     50.33     52.31    -28.98     20.00
   13.9369     50.12     52.41    -29.29     20.00
   13.9471     50.95     52.51    -28.57     20.00
   13.9572     50.49     52.61    -29.12     20.00
   13.9674     51.71     52.71    -28.01     20.00
   13.9776     50.93     52.81    -28.89     20.00
   13.9877     51.35     52.91    -28.57     20.00
   13.9979     51.88     53.02    -28.14     20.00
   14.0080     51.63     53.12    -28.49     20.00
   14.0182     51.71     53.22    -28.51     20.00
   14.0284     51.89     53.32    -28.44     20.00
   14.0385     52.09     53.42    -28.34     20.00
   14.0487     52.20     53.53    -28.33     20.00
   14.0589     52.15     53.63    -28.48     20.00
   14.0690     52.04     53.73    -28.70     20.00
   14.0792     50.68     53.84    -30.16     20.00
   14.0894     52.00     53.94    -28.95     20.00
   14.0995     52.82     54.05    -28.23     20.00
   14.1097     52.83     54.15    -28.32     20.00
   14.1199     51.85     54.26    -29.41     20.00
   14.1300     52.85     54.36    -28.51     20.00
   14.1402     52.57     54.47    -28.90     20.00
   14.1503     52.10     54.57    -29.47     20.00
   14.1605     52.85     54.68    -28.83     20.00
   14.1707     53.48     54.78    -28.31     20.00
   14.1808     53.43     54.89    -28.46     20.00
   14.1910     53.65     55.00    -28.35     20.00
   14.2012     53.79     55.10    -28.32     20.00
   14.2113     54.18     55.21    -28.03     20.00
   14.2215     53.34     55.32    -28.98     20.00
   14.2317     53.74     55.43    -28.69     20.00
   14.2418     53.65     55.53    -28.89     20.00
   14.2520     55.52     55.64    -27.13     20.00
   14.2622     53.54     55.75    -29.22     20.00
   14.2723     55.15     55.86    -27.71     20.00
   14.2825     55.43     55.97    -27.54     20.00
   14.2927     54.51     56.08    -28.57     20.00
   14.3028     54.79     56.19    -28.40     20.00
   14.3130     54.81     56.30    -28.49     20.00
   14.3231     54.89     56.41    -28.52     20.00
   14.3333     55.60     56.52    -27.92     20.00
   14.3435     55.87     56.63    -27.76     20.00
   14.3536     54.85     56.74    -28.89     20.00
   14.3638     54.70     56.85    -29.16     20.00
   14.3740     55.37     56.96    -28.60     20.00
   14.3841     56.10     57.08    -27.98     20.00
   14.3943     56.27     57.19    -27.92     20.00
   14.4045     54.43     57.30    -29.88     20.00
   14.4146     56.18     57.41    -28.24     20.00
   14.4248     55.93     57.53    -28.60     20.00
   14.4350     55.75     57.64    -28.89     20.00
   14.4451     57.34     57.75    -27.42     20.00
   14.4553     56.12     57.87    -28.75     20.00
   14.4654     55.37     57.98    -29.61     20.00
   14.4756     56.62     58.10    -28.48     20.00
   14.4858     56.59     58.21    -28.62     20.00
   14.4959     57.07     58.32    -28.26     20.00
   14.5061     57.52     58.44    -27.92     20.00
   14.5163     56.01     58.56    -29.55     20.00
   14.5264     56.84     58.67    -28.84     20.00
   14.5366     57.26     58.79    -28.53     20.00
   14.5468     56.07     58.90    -29.84     20.00
   14.5569     57.87     59.02    -28.15     20.00
   14.5671     56.44     59.14    -29.70     20.00
   14.5773     57.30     59.25    -28.96     20.00
   14.5874     58.52     59.37    -27.86     20.00
   14.5976     57.74     59.49    -28.75     20.00
   14.6078     57.56     59.61    -29.05     20.00
   14.6179     59.25     59.73    -27.48     20.00
   14.6281     58.21     59.84    -28.64     20.00
   14.6382     57.90     59.96    -29.07     20.00
   14.6484     59.05     60.08    -28.04     20.00
   14.6586     58.30     60.20    -28.91     20.00
   14.6687     58.87     60.32    -28.45     20.00
   14.6789     60.60     60.44    -26.84     20.00
   14.6891     59.02     60.56    -28.55     20.00
   14.6992     59.07     60.68    -28.61     20.00
   14.7094     59.95     60.80    -27.86     20.00
   14.7196     59.43     60.92    -28.50     20.00
   14.7297     59.34     61.04    -28.71     20.00
   14.7399     60.55     61.17    -27.62     20.00
   14.7501     60.18     61.29    -28.11     20.00
   14.7602     59.87     61.41    -28.54     20.00
   14.7704     61.69     61.53    -26.85     20.00
   14.7805     60.97     61.65    -27.69     20.00
   14.7907     60.30     61.78    -28.48     20.00
   14.8009     60.99     61.90    -27.91     20.00
   14.8110     60.79     62.02    -28.24     20.00
   14.8212     59.84     62.15    -29.31     20.00
   14.8314     60.89     62.27    -28.39     20.00
   14.8415     60.57     62.39    -28.83     20.00
   14.8517     59.96     62.52    -29.56     20.00
   14.8619     62.07     62.64    -27.58     20.00
   14.8720     61.34     62.77    -28.43     20.00
   14.8822     61.21     62.89    -28.69     20.00
   14.8924     62.13     63.02    -27.89     20.00
   14.9025     63.16     63.15    -26.99     20.00
   14.9127     61.34     63.27    -28.94     20.00
   14.9229     63.04     63.40    -27.36     20.00
   14.9330     61.34     63.53    -29.19     20.00
   14.9432     62.52     63.65    -28.14     20.00
   14.9533     63.30     63.78    -27.48     20.00
   14.9635     62.80     63.91    -28.11     20.00
   14.9737     62.27     64.03    -28.77     20.00
   14.9838     63.13     64.16    -28.04     20.00
   14.9940     63.25     64.29    -28.04     20.00
   15.0042     62.84     64.42    -28.58     20.00
   15.0143     63.32     64.55    -28.23     20.00
   15.0245     62.72     64.68    -28.96     20.00
   15.0347     63.59     64.81    -28.22     20.00
   15.0448     63.82     64.94    -28.12     20.00
   15.0550     63.88     65.07    -28.19     20.00
   15.0652     63.82     65.20    -28.38     20.00
   15.0753     63.30     65.33    -29.03     20.00
   15.0855     64.70     65.46    -27.76     20.00
   15.0956     64.76     65.59    -27.83     20.00
   15.1058     64.16     65.72    -28.56     20.00
   15.1160     64.77     65.85    -28.09     20.00
   15.1261     64.99     65.98    -28.00     20.00
   15.1363     64.93     66.11    -28.19     20.00
   15.1465     64.99     66.25    -28.26     20.00
   15.1566     65.67     66.38    -27.71     20.00
   15.1668     65.37     66.51    -28.15     20.00
   15.1770     65.55     66.65    -28.10     20.00
   15.1871     65.13     66.78    -28.65     20.00
   15.1973     65.07     66.91    -28.85     20.00
   15.2075     65.91     67.05    -28.14     20.00
   15.2176     65.93     67.18    -28.25     20.00
   15.2278     66.17     67.32    -28.15     20.00
   15.2380     66.90     67.45    -27.55     20.00
   15.2481     66.91     67.58    -27.68     20.00
   15.2583     66.52     67.72    -28.20     20.00
   15.2684     66.38     67.85    -28.48     20.00
   15.2786     65.35     67.99    -29.64     20.00
   15.2888     67.45     68.13    -27.68     20.00
   15.2989     67.38     68.26    -27.89     20.00
   15.3091     67.15     68.40    -28.25     20.00
   15.3193     67.45     68.54    -28.09     20.00
   15.3294     67.68     68.67    -28.00     20.00
   15.3396     68.68     68.81    -27.13     20.00
   15.3498     68.25     68.95    -27.70     20.00
   15.3599     68.45     69.09    -27.64     20.00
   15.3701     66.98     69.22    -29.25     20.00
   15.3803     68.18     69.36    -28.19     20.00
   15.3904     68.61     69.50    -27.89     20.00
   15.4006     69.18     69.64    -27.46     20.00
   15.4107     69.38     69.78    -27.40     20.00
   15.4209     68.18     69.92    -28.74     20.00
   15.4311     68.62     70.06    -28.44     20.00
   15.4412     70.81     70.20    -26.39     20.00
   15.4514     70.27     70.34    -27.07     20.00
   15.4616     70.02     70.48    -27.46     20.00
   15.4717     70.48     70.62    -27.14     20.00
   15.4819     69.51     70.76    -28.25     20.00
   15.4921     69.92     70.90    -27.99     20.00
   15.5022     71.37     71.04    -26.68     20.00
   15.5124     71.21     71.19    -26.98     20.00
   15.5226     73.10     71.33    -25.23     20.00
   15.5327     70.87     71.47    -27.60     20.00
   15.5429     70.09     71.61    -28.53     20.00
   15.5530     71.37     71.75    -27.39     20.00
   15.5632     70.33     71.90    -28.57     20.00
   15.5734     70.13     72.04    -28.92     20.00
   15.5835     70.86     72.18    -28.33     20.00
   15.5937     72.59     72.33    -26.74     20.00
   15.6039     73.04     72.47    -26.44     20.00
   15.6140     71.86     72.62    -27.76     20.00
   15.6242     72.32     72.76    -27.45     20.00
   15.6344     71.70     72.91    -28.21     20.00
   15.6445     71.87     73.05    -28.18     20.00
   15.6547     73.73     73.20    -26.47     20.00
   15.6649     72.76     73.34    -27.59     20.00
   15.6750     72.78     73.49    -27.71     20.00
   15.6852     73.54     73.63    -27.10     20.00
   15.6954     74.27     73.78    -26.52     20.00
   15.7055     75.38     73.93    -25.55     20.00
   15.7157     72.29     74.07    -28.79     20.00
   15.7258     72.63     74.22    -28.60     20.00
   15.7360     73.86     74.37    -27.51     20.00
   15.7462     73.99     74.52    -27.53     20.00
   15.7563     74.07     74.66    -27.60     20.00
   15.7665     74.54     74.81    -27.28     20.00
   15.7767     74.56     74.96    -27.41     20.00
   15.7868     75.18     75.11    -26.93     20.00
   15.7970     75.34     75.26    -26.92     20.00
   15.8072     75.70     75.41    -26.71     20.00
   15.8173     74.52     75.56    -28.04     20.00
   15.8275     76.45     75.71    -26.26     20.00
   15.8377     76.16     75.86    -26.70     20.00
   15.8478     75.21     76.01    -27.80     20.00
   15.8580     76.35     76.16    -26.81     20.00
   15.8681     76.26     76.31    -27.05     20.00
   15.8783     76.54     76.46    -26.92     20.00
   15.8885     75.98     76.61    -27.64     20.00
   15.8986     77.00     76.76    -26.77     20.00
   15.9088     75.32     76.92    -28.60     20.00
   15.9190     75.61     77.07    -28.46     20.00
   15.9291     77.72     77.22    -26.50     20.00
   15.9393     78.16     77.37    -26.22     20.00
   15.9495     78.33     77.53    -26.20     20.00
   15.9596     77.64     77.68    -27.04     20.00
   15.9698     77.70     77.83    -27.14     20.00
   15.9800     78.33     77.99    -26.66     20.00
   15.9901     78.10     78.14    -27.04     20.00
   16.0003     80.00     78.29    -25.30     20.00
   16.0105     78.32     78.45    -27.13     20.00
   16.0206     78.81     78.60    -26.80     20.00
   16.0308     78.68     78.76    -27.08     20.00
   16.0409     79.19     78.91    -26.73     20.00
   16.0511     80.25     79.07    -25.82     20.00
   16.0613     79.75     79.22    -26.48     20.00
   16.0714     78.73     79.38    -27.65     20.00
   16.0816     79.40     79.54    -27.14     20.00
   16.0918     80.45     79.69    -26.25     20.00
   16.1019     78.77     79.85    -28.08     20.00
   16.1121     78.97     80.01    -28.04     20.00
   16.1223     81.16     80.17    -26.01     20.00
   16.1324     79.38     80.32    -27.95     20.00
   16.1426     80.58     80.48    -26.90     20.00
   16.1528     82.56     80.64    -25.08     20.00
   16.1629     82.52     80.80    -25.28     20.00
   16.1731     82.12     80.96    -25.84     20.00
   16.1832     81.54     81.11    -26.58     20.00
   16.1934     83.19     81.27    -25.09     20.00
   16.2036     82.13     81.43    -26.31     20.00
   16.2137     81.91     81.59    -26.69     20.00
   16.2239     83.68     81.75    -25.08     20.00
   16.2341     82.88     81.91    -26.04     20.00
   16.2442     82.46     82.07    -26.62     20.00
   16.2544     82.56     82.24    -26.68     20.00
   16.2646     83.83     82.40    -25.57     20.00
   16.2747     83.55     82.56    -26.01     20.00
   16.2849     82.85     82.72    -26.87     20.00
   16.2951     83.49     82.88    -26.40     20.00
   16.3052     83.45     83.04    -26.60     20.00
   16.3154     84.05     83.21    -26.16     20.00
   16.3256     83.75     83.37    -26.63     20.00
   16.3357     85.00     83.53    -25.54     20.00
   16.3459     84.16     83.70    -26.54     20.00
   16.3560     86.04     83.86    -24.82     20.00
   16.3662     85.66     84.03    -25.37     20.00
   16.3764     84.28     84.19    -26.91     20.00
   16.3865     86.62     84.35    -24.74     20.00
   16.3967     86.57     84.52    -24.95     20.00
   16.4069     87.15     84.69    -24.54     20.00
   16.4170     86.78     84.85    -25.07     20.00
   16.4272     86.64     85.02    -25.38     20.00
   16.4374     87.46     85.18    -24.73     20.00
   16.4475     86.45     85.35    -25.90     20.00
   16.4577     87.26     85.52    -25.26     20.00
   16.4679     86.89     85.69    -25.80     20.00
   16.4780     85.99     85.85    -26.87     20.00
   16.4882     85.91     86.02    -27.11     20.00
   16.4983     87.77     86.19    -25.42     20.00
   16.5085     88.37     86.36    -24.99     20.00
   16.5187     90.78     86.53    -22.75     20.00
   16.5288     89.03     86.69    -24.67     20.00
   16.5390     89.43     86.86    -24.44     20.00
   16.5492     87.90     87.04    -26.14     20.00
   16.5593     89.42     87.20    -24.79     20.00
   16.5695     89.60     87.38    -24.78     20.00
   16.5797     89.88     87.55    -24.67     20.00
   16.5898     90.14     87.72    -24.58     20.00
   16.6000     90.32     87.89    -24.57     20.00
   16.6102     91.16     88.06    -23.91     20.00
   16.6203     91.00     88.24    -24.24     20.00
   16.6305     90.95     88.41    -24.46     20.00
   16.6407     90.87     88.58    -24.72     20.00
   16.6508     91.12     88.76    -24.64     20.00
   16.6610     93.48     88.93    -22.45     20.00
   16.6711     91.63     89.10    -24.48     20.00
   16.6813     91.91     89.28    -24.37     20.00
   16.6915     92.36     89.46    -24.10     20.00
   16.7016     92.52     89.63    -24.11     20.00
   16.7118     94.01     89.81    -22.80     20.00
   16.7220     93.23     89.98    -23.76     20.00
   16.7321     92.89     90.16    -24.27     20.00
   16.7423     93.41     90.34    -23.93     20.00
   16.7525     94.64     90.52    -22.88     20.00
   16.7626     93.36     90.69    -24.34     20.00
   16.7728     95.29     90.87    -22.59     20.00
   16.7830     94.85     91.05    -23.21     20.00
   16.7931     94.23     91.23    -24.01     20.00
   16.8033     94.93     91.41    -23.49     20.00
   16.8134     95.27     91.59    -23.33     20.00
   16.8236     95.60     91.78    -23.18     20.00
   16.8338     95.38     91.96    -23.58     20.00
   16.8439     95.76     92.14    -23.38     20.00
   16.8541     95.57     92.32    -23.76     20.00
   16.8643     94.84     92.51    -24.67     20.00
   16.8744     96.06     92.69    -23.63     20.00
   16.8846     96.93     92.88    -22.95     20.00
   16.8948     96.13     93.06    -23.94     20.00
   16.9049     96.64     93.25    -23.61     20.00
   16.9151     97.13     93.43    -23.31     20.00
   16.9253     96.74     93.62    -23.88     20.00
   16.9354     97.70     93.81    -23.11     20.00
   16.9456     96.87     94.00    -24.13     20.00
   16.9558     97.52     94.19    -23.67     20.00
   16.9659     98.16     94.37    -23.22     20.00
   16.9761     96.25     94.57    -25.32     20.00
   16.9862     98.61     94.75    -23.15     20.00
   16.9964     98.61     94.95    -23.34     20.00
   17.0066     98.71     95.14    -23.43     20.00
   17.0167     98.52     95.33    -23.82     20.00
   17.0269     99.10     95.53    -23.43     20.00
   17.0371     97.69     95.72    -25.04     20.00
   17.0472     97.96     95.92    -24.96     20.00
   17.0574     99.76     96.11    -23.36     20.00
   17.0676     99.14     96.31    -24.18     20.00
   17.0777     98.80     96.51    -24.71     20.00
   17.0879     99.19     96.71    -24.52     20.00
   17.0981     99.76     96.91    -24.15     20.00
   17.1082    100.92     97.11    -23.19     20.00
   17.1184    100.23     97.31    -24.08     20.00
   17.1285     99.22     97.51    -25.29     20.00
   17.1387    101.30     97.71    -23.42     20.00
   17.1489    102.03     97.92    -22.89     20.00
   17.1590    101.16     98.12    -23.97     20.00
   17.1692    100.88     98.33    -24.46     20.00
   17.1794    102.21     98.54    -23.33     20.00
   17.1895    102.12     98.75    -23.63     20.00
   17.1997    101.14     98.96    -24.82     20.00
   17.2099    102.68     99.17    -23.49     20.00
   17.2200    102.97     99.38    -23.41     20.00
   17.2302    103.37     99.59    -23.23     20.00
   17.2404    104.65     99.81    -22.16     20.00
   17.2505    101.73    100.03    -25.30     20.00
   17.2607    103.17    100.24    -24.08     20.00
   17.2709    103.99    100.46    -23.48     20.00
   17.2810    102.24    100.68    -25.45     20.00
   17.2912    104.19    100.91    -23.72     20.00
   17.3013    104.26    101.13    -23.87     20.00
   17.3115    104.04    101.35    -24.32     20.00
   17.3217    103.77    101.58    -24.81     20.00
   17.3318    105.54    101.81    -23.27     20.00
   17.3420    105.50    102.04    -23.54     20.00
   17.3522    103.16    102.27    -26.12     20.00
   17.3623    104.52    102.50    -24.99     20.00
   17.3725    106.47    102.74    -23.28     20.00
   17.3827    104.83    102.98    -25.15     20.00
   17.3928    106.96    103.22    -23.26     20.00
   17.4030    106.73    103.46    -23.74     20.00
   17.4132    106.70    103.71    -24.01     20.00
   17.4233    107.93    103.95    -23.03     20.00
   17.4335    107.22    104.20    -23.99     20.00
   17.4436    106.84    104.46    -24.62     20.00
   17.4538    108.96    104.71    -22.76     20.00
   17.4640    108.36    104.97    -23.61     20.00
   17.4741    108.71    105.23    -23.52     20.00
   17.4843    109.82    105.50    -22.68     20.00
   17.4945    108.26    105.76    -24.51     20.00
   17.5046    110.20    106.03    -22.84     20.00
   17.5148    109.98    106.31    -23.33     20.00
   17.5250    108.85    106.59    -24.74     20.00
   17.5351    110.98    106.87    -22.89     20.00
   17.5453    110.35    107.16    -23.81     20.00
   17.5555    110.44    107.45    -24.02     20.00
   17.5656    111.29    107.75    -23.46     20.00
   17.5758    112.34    108.05    -22.71     20.00
   17.5859    110.99    108.35    -24.37     20.00
   17.5961    110.30    108.67    -25.37     20.00
   17.6063    112.05    108.99    -23.94     20.00
   17.6164    111.45    109.31    -24.86     20.00
   17.6266    114.13    109.64    -22.52     20.00
   17.6368    112.62    109.98    -24.37     20.00
   17.6469    112.42    110.33    -24.91     20.00
   17.6571    112.87    110.68    -24.82     20.00
   17.6673    116.07    111.05    -21.98     20.00
   17.6774    115.09    111.42    -23.33     20.00
   17.6876    114.87    111.80    -23.93     20.00
   17.6978    118.10    112.19    -21.10     20.00
   17.7079    115.74    112.59    -23.86     20.00
   17.7181    115.93    113.01    -24.08     20.00
   17.7283    116.87    113.43    -23.57     20.00
   17.7384    116.71    113.87    -24.16     20.00
   17.7486    119.44    114.32    -21.89     20.00
   17.7587    118.89    114.79    -22.90     20.00
   17.7689    118.51    115.27    -23.76     20.00
   17.7791    119.45    115.77    -23.32     20.00
   17.7892    120.74    116.28    -22.54     20.00
   17.7994    120.00    116.81    -23.82     20.00
   17.8096    122.54    117.36    -21.83     20.00
   17.8197    121.84    117.93    -23.10     20.00
   17.8299    121.63    118.53    -23.90     20.00
   17.8401    122.65    119.14    -23.49     20.00
   17.8502    125.14    119.77    -21.64     20.00
   17.8604    124.02    120.44    -23.42     20.00
   17.8706    125.80    121.13    -22.33     20.00
   17.8807    125.35    121.83    -23.49     20.00
   17.8909    126.42    122.58    -23.16     20.00
   17.9010    125.91    123.35    -24.44     20.00
   17.9112    127.35    124.15    -23.80     20.00
   17.9214    128.44    124.99    -23.55     20.00
   17.9315    128.60    125.85    -24.26     20.00
   17.9417    130.47    126.76    -23.29     20.00
   17.9519    132.35    127.70    -22.36     20.00
   17.9620    131.70    128.67    -23.98     20.00
   17.9722    134.59    129.70    -22.11     20.00
   17.9824    132.63    130.76    -25.13     20.00
   17.9925    135.98    131.85    -22.88     20.00
   18.0027    136.42    133.00    -23.59     20.00
   18.0129    137.26    134.20    -23.94     20.00
   18.0230    136.53    135.43    -25.90     20.00
   18.0332    139.67    136.72    -24.05     20.00
   18.0434    141.35    138.06    -23.72     20.00
   18.0535    142.21    139.44    -24.24     20.00
   18.0637    144.20    140.89    -23.69     20.00
   18.0738    145.76    142.37    -23.62     20.00
   18.0840    146.36    143.93    -24.57     20.00
   18.0942    147.18    145.54    -25.36     20.00
   18.1043    148.11    147.19    -26.08     20.00
   18.1145    150.95    148.92    -24.97     20.00
   18.1247    150.97    150.70    -26.74     20.00
   18.1348    152.91    152.53    -26.63     20.00
   18.1450    152.72    154.44    -28.72     20.00
   18.1552    155.77    156.41    -27.64     20.00
   18.1653    157.31    158.42    -28.11     20.00
   18.1755    160.58    160.51    -26.93     20.00
   18.1857    162.24    162.66    -27.42     20.00
   18.1958    163.56    164.85    -28.30     20.00
   18.2060    164.98    167.13    -29.15     20.00
   18.2161    166.62    169.44    -29.83     20.00
   18.2263    172.05    171.84    -26.79     20.00
   18.2365    171.46    174.30    -29.84     20.00
   18.2466    174.82    176.79    -28.97     20.00
   18.2568    175.93    179.36    -30.43     20.00
   18.2670    176.74    181.99    -32.25     20.00
   18.2771    181.90    184.64    -29.74     20.00
   18.2873    186.50    187.37    -27.87     20.00
   18.2975    185.43    190.15    -31.72     20.00
   18.3076    189.92    192.95    -30.03     20.00
   18.3178    193.59    195.82    -29.23     20.00
   18.3280    194.52    198.72    -31.21     20.00
   18.3381    198.45    201.64    -30.19     20.00
   18.3483    200.85    204.61    -30.76     20.00
   18.3585    203.82    207.60    -30.79     20.00
   18.3686    206.49    210.59    -31.11     20.00
   18.3788    209.50    213.62    -31.13     20.00
   18.3889    211.38    216.63    -32.26     20.00
   18.3991    216.52    219.67    -30.16     20.00
   18.4093    219.96    222.71    -29.75     20.00
   18.4194    221.95    225.70    -30.75     20.00
   18.4296    226.80    228.70    -28.90     20.00
   18.4398    226.59    231.66    -32.07     20.00
   18.4499    228.02    234.56    -33.54     20.00
   18.4601    234.29    237.43    -30.14     20.00
   18.4703    238.36    240.24    -28.88     20.00
   18.4804    237.48    242.95    -32.47     20.00
   18.4906    245.54    245.60    -27.06     20.00
   18.5008    247.21    248.15    -27.94     20.00
   18.5109    246.98    250.57    -30.59     20.00
   18.5211    251.72    252.89    -28.18     20.00
   18.5312    257.28    255.06    -24.79     20.00
   18.5414    254.10    257.11    -30.01     20.00
   18.5516    258.85    258.99    -27.15     20.00
   18.5617    260.41    260.69    -27.29     20.00
   18.5719    260.84    262.23    -28.40     20.00
   18.5821    265.20    263.58    -25.39     20.00
   18.5922    264.55    264.73    -27.18     20.00
   18.6024    264.77    265.68    -27.91     20.00
   18.6126    268.71    266.41    -24.71     20.00
   18.6227    267.70    266.93    -26.24     20.00
   18.6329    267.23    267.24    -27.01     20.00
   18.6431    268.57    267.32    -25.75     20.00
   18.6532    269.68    267.18    -24.51     20.00
   18.6634    269.88    266.83    -23.95     20.00
   18.6736    269.95    266.26    -23.31     20.00
   18.6837    270.02    265.48    -22.46     20.00
   18.6939    267.85    264.49    -23.65     20.00
   18.7040    267.40    263.32    -22.93     20.00
   18.7142    267.31    261.95    -21.65     20.00
   18.7244    263.57    260.40    -23.84     20.00
   18.7345    261.56    258.70    -24.14     20.00
   18.7447    261.41    256.83    -22.42     20.00
   18.7549    254.32    254.81    -27.49     20.00
   18.7650    258.24    252.68    -21.44     20.00
   18.7752    254.28    250.40    -23.13     20.00
   18.7854    250.18    248.02    -24.85     20.00
   18.7955    250.60    245.57    -21.97     20.00
   18.8057    246.27    243.00    -23.74     20.00
   18.8159    243.28    240.37    -24.09     20.00
   18.8260    239.38    237.70    -25.32     20.00
   18.8362    236.56    234.95    -25.39     20.00
   18.8463    234.57    232.18    -24.62     20.00
   18.8565    231.34    229.36    -25.03     20.00
   18.8667    229.77    226.52    -23.75     20.00
   18.8768    223.37    223.69    -27.32     20.00
   18.8870    221.19    220.82    -26.64     20.00
   18.8972    219.99    217.96    -24.97     20.00
   18.9073    213.51    215.13    -28.63     20.00
   18.9175    213.17    212.29    -26.12     20.00
   18.9277    208.26    209.47    -28.21     20.00
   18.9378    205.66    206.70    -28.05     20.00
   18.9480    201.50    203.94    -29.44     20.00
   18.9582    201.15    201.21    -27.06     20.00
   18.9683    196.49    198.55    -29.06     20.00
   18.9785    195.45    195.90    -27.45     20.00
   18.9887    191.40    193.30    -28.90     20.00
   18.9988    189.45    190.77    -28.32     20.00
   19.0090    188.75    188.26    -26.52     20.00
   19.0191    182.99    185.84    -29.85     20.00
   19.0293    182.07    183.44    -28.38     20.00
   19.0395    180.00    181.11    -28.11     20.00
   19.0496    175.95    178.85    -29.90     20.00
   19.0598    172.84    176.63    -30.79     20.00
   19.0700    173.13    174.47    -28.34     20.00
   19.0801    170.59    172.39    -28.81     20.00
   19.0903    166.85    170.35    -30.51     20.00
   19.1005    165.61    168.38    -29.77     20.00
   19.1106    166.41    166.48    -27.08     20.00
   19.1208    162.36    164.63    -29.27     20.00
   19.1310    161.40    162.84    -28.44     20.00
   19.1411    159.42    161.12    -28.71     20.00
   19.1513    157.20    159.45    -29.26     20.00
   19.1614    155.90    157.86    -28.96     20.00
   19.1716    153.99    156.31    -29.32     20.00
   19.1818    151.63    154.82    -30.19     20.00
   19.1919    151.73    153.39    -28.67     20.00
   19.2021    150.10    152.01    -28.92     20.00
   19.2123    147.89    150.69    -29.80     20.00
   19.2224    148.79    149.43    -27.65     20.00
   19.2326    147.51    148.21    -27.71     20.00
   19.2428    145.20    147.05    -28.85     20.00
   19.2529    144.74    145.94    -28.20     20.00
   19.2631    144.75    144.87    -27.13     20.00
   19.2733    142.52    143.85    -28.33     20.00
   19.2834    141.23    142.88    -28.66     20.00
   19.2936    140.77    141.95    -28.19     20.00
   19.3038    140.54    141.06    -27.53     20.00
   19.3139    139.48    140.22    -27.75     20.00
   19.3241    137.37    139.42    -29.05     20.00
   19.3342    138.98    138.65    -26.68     20.00
   19.3444    137.26    137.92    -27.66     20.00
   19.3546    136.25    137.22    -27.97     20.00
   19.3647    135.80    136.56    -27.77     20.00
   19.3749    136.23    135.93    -26.70     20.00
   19.3851    135.60    135.33    -26.73     20.00
   19.3952    132.76    134.76    -29.01     20.00
   19.4054    133.54    134.22    -27.68     20.00
   19.4156    132.23    133.70    -28.48     20.00
   19.4257    131.29    133.22    -28.93     20.00
   19.4359    132.42    132.75    -27.33     20.00
   19.4461    129.37    132.31    -29.94     20.00
   19.4562    129.46    131.89    -29.43     20.00
   19.4664    129.49    131.49    -29.00     20.00
   19.4765    130.38    131.11    -27.74     20.00
   19.4867    127.29    130.75    -30.47     20.00
   19.4969    128.92    130.41    -28.49     20.00
   19.5070    127.18    130.09    -29.91     20.00
   19.5172    128.59    129.78    -28.19     20.00
   19.5274    126.91    129.48    -29.57     20.00
   19.5375    129.16    129.20    -27.05     20.00
   19.5477    128.24    128.94    -27.70     20.00
   19.5579    128.46    128.68    -27.23     20.00
   19.5680    125.44    128.45    -30.01     20.00
   19.5782    126.59    128.22    -28.63     20.00
   19.5884    125.04    128.00    -29.96     20.00
   19.5985    126.77    127.79    -28.03     20.00
   19.6087    125.99    127.60    -28.61     20.00
   19.6188    125.71    127.41    -28.70     20.00
   19.6290    126.37    127.23    -27.87     20.00
   19.6392    125.02    127.06    -29.05     20.00
   19.6493    125.13    126.90    -28.78     20.00
   19.6595    123.03    126.75    -30.72     20.00
   19.6697    124.21    126.60    -29.40     20.00
   19.6798    123.46    126.47    -30.01     20.00
   19.6900    124.04    126.34    -29.30     20.00
   19.7002    124.96    126.21    -28.26     20.00
   19.7103    123.25    126.10    -29.85     20.00
   19.7205    123.99    125.99    -29.00     20.00
   19.7307    124.07    125.88    -28.82     20.00
   19.7408    122.57    125.78    -30.22     20.00
   19.7510    122.24    125.69    -30.46     20.00
   19.7612    125.30    125.61    -27.31     20.00
   19.7713    122.77    125.53    -29.76     20.00
   19.7815    124.27    125.46    -28.19     20.00
   19.7916    123.52    125.39    -28.87     20.00
   19.8018    123.23    125.33    -29.10     20.00
   19.8120    122.40    125.28    -29.88     20.00
   19.8221    122.25    125.23    -29.98     20.00
   19.8323    123.68    125.19    -28.51     20.00
   19.8425    123.37    125.15    -28.79     20.00
   19.8526    123.79    125.12    -28.34     20.00
   19.8628    123.00    125.10    -29.11     20.00
   19.8730    123.71    125.09    -28.38     20.00
   19.8831    123.80    125.08    -28.29     20.00
   19.8933    124.12    125.08    -27.97     20.00
   19.9035    124.93    125.09    -27.17     20.00
   19.9136    121.49    125.11    -30.62     20.00
   19.9238    126.38    125.13    -25.76     20.00
   19.9339    124.57    125.17    -27.60     20.00
   19.9441    123.09    125.21    -29.12     20.00
   19.9543    124.87    125.26    -27.39     20.00
   19.9644    126.25    125.32    -26.07     20.00
   19.9746    124.75    125.39    -27.65     20.00
   19.9848    124.35    125.47    -28.13     20.00
   19.9949    125.71    125.56    -26.86     20.00
   20.0051    124.07    125.67    -28.60     20.00
   20.0153    125.46    125.78    -27.33     20.00
   20.0254    126.84    125.91    -26.07     20.00
   20.0356    125.43    126.05    -27.62     20.00
   20.0458    125.99    126.20    -27.21     20.00
   20.0559    127.70    126.36    -25.66     20.00
   20.0661    126.33    126.54    -27.21     20.00
   20.0763    126.47    126.73    -27.26     20.00
   20.0864    127.73    126.93    -26.20     20.00
   20.0966    126.46    127.15    -27.69     20.00
   20.1067    127.64    127.38    -26.74     20.00
   20.1169    129.99    127.63    -24.64     20.00
   20.1271    128.35    127.89    -26.54     20.00
   20.1372    130.87    128.16    -24.30     20.00
   20.1474    129.91    128.46    -25.55     20.00
   20.1576    131.37    128.77    -24.40     20.00
   20.1677    131.40    129.09    -24.69     20.00
   20.1779    131.65    129.43    -24.78     20.00
   20.1881    129.91    129.79    -26.88     20.00
   20.1982    131.97    130.16    -25.19     20.00
   20.2084    132.84    130.55    -24.71     20.00
   20.2186    131.62    130.95    -26.33     20.00
   20.2287    132.33    131.37    -26.04     20.00
   20.2389    133.60    131.80    -25.21     20.00
   20.2490    133.93    132.25    -25.32     20.00
   20.2592    135.73    132.71    -23.99     20.00
   20.2694    134.99    133.19    -25.21     20.00
   20.2795    135.23    133.68    -25.45     20.00
   20.2897    136.21    134.19    -24.98     20.00
   20.2999    137.63    134.70    -24.08     20.00
   20.3100    136.49    135.23    -25.74     20.00
   20.3202    138.38    135.77    -24.39     20.00
   20.3304    138.13    136.32    -25.19     20.00
   20.3405    137.22    136.87    -26.65     20.00
   20.3507    138.63    137.43    -25.81     20.00
   20.3609    138.32    138.00    -26.68     20.00
   20.3710    139.24    138.57    -26.33     20.00
   20.3812    140.81    139.14    -25.34     20.00
   20.3914    140.04    139.71    -26.68     20.00
   20.4015    139.00    140.28    -28.28     20.00
   20.4117    141.97    140.85    -25.88     20.00
   20.4218    141.57    141.40    -26.84     20.00
   20.4320    142.11    141.95    -26.85     20.00
   20.4422    140.93    142.49    -28.56     20.00
   20.4523    142.15    143.01    -27.86     20.00
   20.4625    142.70    143.51    -27.81     20.00
   20.4727    142.63    143.99    -28.36     20.00
   20.4828    144.38    144.44    -27.06     20.00
   20.4930    143.01    144.87    -28.86     20.00
   20.5032    144.59    145.26    -27.67     20.00
   20.5133    147.12    145.62    -25.50     20.00
   20.5235    142.79    145.94    -30.15     20.00
   20.5337    145.85    146.21    -27.37     20.00
   20.5438    143.59    146.44    -29.86     20.00
   20.5540    145.30    146.63    -28.33     20.00
   20.5641    145.30    146.77    -28.47     20.00
   20.5743    145.37    146.85    -28.48     20.00
   20.5845    145.30    146.88    -28.59     20.00
   20.5946    147.55    146.86    -26.31     20.00
   20.6048    146.38    146.78    -27.41     20.00
   20.6150    146.16    146.65    -27.49     20.00
   20.6251    144.53    146.47    -28.94     20.00
   20.6353    146.05    146.23    -27.18     20.00
   20.6455    144.43    145.94    -28.51     20.00
   20.6556    144.05    145.60    -28.55     20.00
   20.6658    142.74    145.21    -29.47     20.00
   20.6760    143.86    144.78    -27.92     20.00
   20.6861    141.93    144.31    -29.38     20.00
   20.6963    143.29    143.79    -27.51     20.00
   20.7065    143.48    143.24    -26.77     20.00
   20.7166    142.54    142.66    -27.13     20.00
   20.7268    142.66    142.05    -26.40     20.00
   20.7369    142.34    141.42    -26.09     20.00
   20.7471    144.31    140.76    -23.46     20.00
   20.7573    141.63    140.09    -25.46     20.00
   20.7674    139.56    139.40    -26.84     20.00
   20.7776    139.07    138.69    -26.63     20.00
   20.7878    139.34    137.98    -25.64     20.00
   20.7979    138.19    137.26    -26.08     20.00
   20.8081    139.60    136.53    -23.94     20.00
   20.8183    136.52    135.80    -26.29     20.00
   20.8284    136.44    135.08    -25.64     20.00
   20.8386    136.25    134.35    -25.10     20.00
   20.8488    135.44    133.63    -25.19     20.00
   20.8589    133.41    132.91    -26.51     20.00
   20.8691    135.08    132.20    -24.12     20.00
   20.8792    134.31    131.50    -24.20     20.00
   20.8894    131.80    130.81    -26.01     20.00
   20.8996    132.93    130.12    -24.20     20.00
   20.9097    129.71    129.46    -26.75     20.00
   20.9199    130.32    128.80    -25.48     20.00
   20.9301    131.15    128.15    -24.01     20.00
   20.9402    130.87    127.53    -23.66     20.00
   20.9504    127.98    126.91    -25.93     20.00
   20.9606    128.01    126.30    -25.30     20.00
   20.9707    128.07    125.72    -24.66     20.00
   20.9809    126.82    125.15    -25.33     20.00
   20.9911    126.08    124.60    -25.52     20.00
   21.0012    125.70    124.06    -25.37     20.00
   21.0114    125.24    123.54    -25.30     20.00
   21.0216    124.31    123.03    -25.73     20.00
   21.0317    122.59    122.55    -26.96     20.00
   21.0419    120.93    122.08    -28.15     20.00
   21.0520    123.99    121.62    -24.64     20.00
   21.0622    121.07    121.18    -27.12     20.00
   21.0724    122.12    120.76    -25.65     20.00
   21.0825    121.54    120.36    -25.82     20.00
   21.0927    120.38    119.97    -26.59     20.00
   21.1029    118.83    119.59    -27.77     20.00
   21.1130    120.80    119.24    -25.44     20.00
   21.1232    119.01    118.89    -26.89     20.00
   21.1334    118.32    118.57    -27.25     20.00
   21.1435    117.46    118.25    -27.80     20.00
   21.1537    118.21    117.96    -26.75     20.00
   21.1639    116.53    117.67    -28.15     20.00
   21.1740    115.62    117.40    -28.79     20.00
   21.1842    115.80    117.15    -28.35     20.00
   21.1943    115.41    116.90    -28.50     20.00
   21.2045    114.66    116.67    -29.02     20.00
   21.2147    114.97    116.46    -28.49     20.00
   21.2248    112.60    116.25    -30.66     20.00
   21.2350    114.11    116.06    -28.95     20.00
   21.2452    114.96    115.88    -27.92     20.00
   21.2553    112.37    115.71    -30.34     20.00
   21.2655    113.95    115.55    -28.61     20.00
   21.2757    113.24    115.41    -29.17     20.00
   21.2858    112.20    115.27    -30.07     20.00
   21.2960    112.16    115.15    -29.99     20.00
   21.3062    114.18    115.03    -27.86     20.00
   21.3163    111.22    114.93    -30.71     20.00
   21.3265    110.46    114.83    -31.38     20.00
   21.3366    111.04    114.75    -30.72     20.00
   21.3468    109.96    114.68    -31.72     20.00
   21.3570    111.89    114.61    -29.73     20.00
   21.3671    111.58    114.56    -29.98     20.00
   21.3773    111.59    114.52    -29.93     20.00
   21.3875    112.33    114.48    -29.16     20.00
   21.3976    110.77    114.46    -30.69     20.00
   21.4078    110.43    114.44    -31.02     20.00
   21.4180    110.85    114.44    -30.59     20.00
   21.4281    110.76    114.44    -30.69     20.00
   21.4383    109.15    114.46    -32.31     20.00
   21.4485    110.79    114.48    -30.69     20.00
   21.4586    109.84    114.51    -31.68     20.00
   21.4688    109.33    114.56    -32.23     20.00
   21.4790    110.62    114.61    -31.00     20.00
   21.4891    109.91    114.68    -31.77     20.00
   21.4993    109.19    114.75    -32.56     20.00
   21.5094    110.91    114.83    -30.93     20.00
   21.5196    110.82    114.93    -31.11     20.00
   21.5298    109.32    115.04    -32.72     20.00
   21.5399    110.42    115.15    -31.74     20.00
   21.5501    111.72    115.28    -30.57     20.00
   21.5603    109.67    115.42    -32.76     20.00
   21.5704    110.61    115.57    -31.97     20.00
   21.5806    111.49    115.74    -31.25     20.00
   21.5908    110.50    115.91    -32.42     20.00
   21.6009    111.19    116.10    -31.92     20.00
   21.6111    112.33    116.30    -30.98     20.00
   21.6213    112.37    116.52    -31.15     20.00
   21.6314    113.50    116.74    -30.24     20.00
   21.6416    112.94    116.98    -31.05     20.00
   21.6517    111.16    117.23    -33.08     20.00
   21.6619    114.11    117.50    -30.39     20.00
   21.6721    115.94    117.78    -28.84     20.00
   21.6822    114.04    118.07    -31.04     20.00
   21.6924    115.59    118.38    -29.80     20.00
   21.7026    115.60    118.71    -30.11     20.00
   21.7127    115.60    119.04    -30.45     20.00
   21.7229    118.34    119.40    -28.06     20.00
   21.7331    116.68    119.77    -30.09     20.00
   21.7432    117.03    120.15    -30.12     20.00
   21.7534    119.05    120.55    -28.50     20.00
   21.7636    120.22    120.97    -27.75     20.00
   21.7737    119.22    121.39    -29.18     20.00
   21.7839    120.08    121.84    -28.77     20.00
   21.7941    121.65    122.31    -27.66     20.00
   21.8042    119.60    122.79    -30.19     20.00
   21.8144    121.85    123.28    -28.44     20.00
   21.8245    123.88    123.79    -26.92     20.00
   21.8347    122.48    124.33    -28.85     20.00
   21.8449    123.67    124.87    -28.21     20.00
   21.8550    126.26    125.43    -26.18     20.00
   21.8652    124.77    126.02    -28.25     20.00
   21.8754    126.18    126.62    -27.44     20.00
   21.8855    127.38    127.23    -26.85     20.00
   21.8957    127.62    127.86    -27.24     20.00
   21.9059    128.69    128.51    -26.83     20.00
   21.9160    128.66    129.17    -27.52     20.00
   21.9262    129.23    129.86    -27.63     20.00
   21.9364    130.59    130.56    -26.97     20.00
   21.9465    133.10    131.27    -25.17     20.00
   21.9567    132.08    132.00    -26.92     20.00
   21.9668    134.01    132.74    -25.73     20.00
   21.9770    135.37    133.50    -25.14     20.00
   21.9872    134.60    134.28    -26.69     20.00
   21.9973    138.91    135.07    -23.17     20.00
   22.0075    136.06    135.88    -26.82     20.00
   22.0177    137.46    136.70    -26.25     20.00
   22.0278    139.41    137.53    -25.13     20.00
   22.0380    140.60    138.38    -24.79     20.00
   22.0482    139.29    139.25    -26.96     20.00
   22.0583    142.75    140.11    -24.37     20.00
   22.0685    143.39    141.00    -24.62     20.00
   22.0787    143.01    141.90    -25.89     20.00
   22.0888    145.05    142.80    -24.75     20.00
   22.0990    146.61    143.72    -24.11     20.00
   22.1092    145.30    144.64    -26.34     20.00
   22.1193    146.48    145.56    -26.09     20.00
   22.1295    149.48    146.50    -24.03     20.00
   22.1396    149.09    147.44    -25.35     20.00
   22.1498    151.66    148.39    -23.73     20.00
   22.1600    152.80    149.34    -23.54     20.00
   22.1701    152.74    150.28    -24.55     20.00
   22.1803    155.66    151.24    -22.58     20.00
   22.1905    157.87    152.19    -21.32     20.00
   22.2006    155.75    153.13    -24.39     20.00
   22.2108    157.59    154.08    -23.49     20.00
   22.2210    158.90    155.02    -23.12     20.00
   22.2311    158.80    155.94    -24.15     20.00
   22.2413    162.68    156.87    -21.19     20.00
   22.2515    163.03    157.78    -21.76     20.00
   22.2616    161.71    158.67    -23.97     20.00
   22.2718    162.43    159.56    -24.13     20.00
   22.2819    165.40    160.42    -22.02     20.00
   22.2921    163.96    161.27    -24.31     20.00
   22.3023    164.50    162.10    -24.60     20.00
   22.3124    166.09    162.89    -23.81     20.00
   22.3226    167.34    163.67    -23.33     20.00
   22.3328    167.21    164.42    -24.21     20.00
   22.3429    167.71    165.13    -24.43     20.00
   22.3531    166.83    165.82    -25.99     20.00
   22.3633    170.41    166.47    -23.06     20.00
   22.3734    168.95    167.08    -25.13     20.00
   22.3836    166.59    167.65    -28.06     20.00
   22.3938    170.92    168.18    -24.26     20.00
   22.4039    171.11    168.66    -24.56     20.00
   22.4141    169.98    169.10    -26.13     20.00
   22.4243    170.16    169.50    -26.34     20.00
   22.4344    171.62    169.84    -25.22     20.00
   22.4446    169.65    170.13    -27.48     20.00
   22.4547    172.27    170.36    -25.10     20.00
   22.4649    172.38    170.54    -25.17     20.00
   22.4751    168.43    170.67    -29.24     20.00
   22.4852    169.73    170.74    -28.01     20.00
   22.4954    170.83    170.75    -26.92     20.00
   22.5056    166.52    170.70    -31.19     20.00
   22.5157    168.71    170.60    -28.89     20.00
   22.5259    169.29    170.43    -28.15     20.00
   22.5361    168.18    170.21    -29.03     20.00
   22.5462    167.83    169.93    -29.10     20.00
   22.5564    168.02    169.59    -28.57     20.00
   22.5666    166.68    169.19    -29.51     20.00
   22.5767    165.51    168.74    -30.23     20.00
   22.5869    167.43    168.22    -27.80     20.00
   22.5970    164.64    167.66    -30.03     20.00
   22.6072    163.66    167.05    -30.39     20.00
   22.6174    163.90    166.38    -29.48     20.00
   22.6275    162.14    165.66    -30.53     20.00
   22.6377    162.08    164.90    -29.82     20.00
   22.6479    162.63    164.09    -28.46     20.00
   22.6580    159.80    163.24    -30.44     20.00
   22.6682    159.46    162.34    -29.89     20.00
   22.6784    160.09    161.41    -28.32     20.00
   22.6885    155.66    160.45    -31.79     20.00
   22.6987    156.29    159.44    -30.15     20.00
   22.7089    156.37    158.40    -29.04     20.00
   22.7190    153.51    157.34    -30.84     20.00
   22.7292    153.76    156.25    -29.49     20.00
   22.7394    153.65    155.13    -28.48     20.00
   22.7495    150.19    154.00    -30.81     20.00
   22.7597    150.78    152.83    -29.06     20.00
   22.7698    150.38    151.67    -28.29     20.00
   22.7800    145.38    150.47    -32.09     20.00
   22.7902    147.41    149.26    -28.85     20.00
   22.8003    147.99    148.04    -27.06     20.00
   22.8105    143.34    146.81    -30.47     20.00
   22.8207    143.26    145.57    -29.31     20.00
   22.8308    142.09    144.33    -29.25     20.00
   22.8410    139.89    143.08    -30.19     20.00
   22.8512    141.15    141.82    -27.67     20.00
   22.8613    138.12    140.57    -29.46     20.00
   22.8715    139.09    139.31    -27.23     20.00
   22.8817    138.65    138.06    -26.41     20.00
   22.8918    136.73    136.81    -27.09     20.00
   22.9020    134.86    135.56    -27.70     20.00
   22.9121    133.36    134.32    -27.97     20.00
   22.9223    131.56    133.08    -28.53     20.00
   22.9325    129.96    131.85    -28.89     20.00
   22.9426    131.75    130.63    -25.89     20.00
   22.9528    131.04    129.41    -25.38     20.00
   22.9630    128.52    128.21    -26.69     20.00
   22.9731    128.63    127.02    -25.39     20.00
   22.9833    126.40    125.83    -26.44     20.00
   22.9935    125.41    124.66    -26.25     20.00
   23.0036    124.43    123.50    -26.08     20.00
   23.0138    123.99    122.35    -25.37     20.00
   23.0240    121.90    121.22    -26.32     20.00
   23.0341    122.02    120.11    -25.09     20.00
   23.0443    121.30    119.00    -24.70     20.00
   23.0545    119.67    117.90    -25.24     20.00
   23.0646    118.97    116.84    -24.87     20.00
   23.0748    116.46    115.77    -26.32     20.00
   23.0849    116.37    114.74    -25.37     20.00
   23.0951    115.74    113.71    -24.97     20.00
   23.1053    114.59    112.69    -25.11     20.00
   23.1154    112.83    111.70    -25.88     20.00
   23.1256    114.31    110.72    -23.42     20.00
   23.1358    112.73    109.76    -24.03     20.00
   23.1459    110.70    108.82    -25.12     20.00
   23.1561    110.42    107.89    -24.47     20.00
   23.1663    111.21    106.97    -22.77     20.00
   23.1764    107.84    106.08    -25.25     20.00
   23.1866    108.48    105.20    -23.73     20.00
   23.1968    108.38    104.34    -22.96     20.00
   23.2069    105.66    103.50    -24.85     20.00
   23.2171    106.88    102.67    -22.80     20.00
   23.2272    106.74    101.87    -22.13     20.00
   23.2374    103.62    101.07    -24.45     20.00
   23.2476    104.53    100.29    -22.76     20.00
   23.2577    103.50     99.53    -23.04     20.00
   23.2679    101.93     98.78    -23.86     20.00
   23.2781    100.39     98.05    -24.67     20.00
   23.2882    100.27     97.34    -24.08     20.00
   23.2984    101.26     96.64    -22.39     20.00
   23.3086     98.63     95.96    -24.33     20.00
   23.3187     95.52     95.30    -26.78     20.00
   23.3289     97.95     94.64    -23.69     20.00
   23.3391     97.24     94.00    -23.76     20.00
   23.3492     96.51     93.38    -23.88     20.00
   23.3594     95.07     92.77    -24.70     20.00
   23.3695     93.97     92.18    -25.21     20.00
   23.3797     94.13     91.59    -24.47     20.00
   23.3899     93.27     91.02    -24.76     20.00
   23.4000     92.79     90.47    -24.69     20.00
   23.4102     90.83     89.93    -26.10     20.00
   23.4204     92.50     89.40    -23.90     20.00
   23.4305     91.16     88.88    -24.73     20.00
   23.4407     91.21     88.38    -24.17     20.00
   23.4509     90.89     87.88    -24.00     20.00
   23.4610     89.77     87.40    -24.64     20.00
   23.4712     89.19     86.93    -24.74     20.00
   23.4814     87.52     86.47    -25.95     20.00
   23.4915     88.01     86.02    -25.02     20.00
   23.5017     86.59     85.58    -25.99     20.00
   23.5119     85.54     85.15    -26.61     20.00
   23.5220     86.80     84.73    -24.94     20.00
   23.5322     85.05     84.32    -26.28     20.00
   23.5423     84.37     83.92    -26.56     20.00
   23.5525     84.90     83.53    -25.63     20.00
   23.5627     83.03     83.15    -27.12     20.00
   23.5728     83.80     82.77    -25.98     20.00
   23.5830     82.36     82.40    -27.05     20.00
   23.5932     82.26     82.04    -26.79     20.00
   23.6033     82.10     81.70    -26.60     20.00
   23.6135     82.11     81.35    -26.24     20.00
   23.6237     81.60     81.01    -26.42     20.00
   23.6338     81.35     80.68    -26.34     20.00
   23.6440     82.02     80.36    -25.34     20.00
   23.6542     79.66     80.04    -27.39     20.00
   23.6643     80.14     79.73    -26.60     20.00
   23.6745     79.91     79.43    -26.52     20.00
   23.6846     79.30     79.13    -26.83     20.00
   23.6948     77.98     78.84    -27.86     20.00
   23.7050     78.53     78.55    -27.02     20.00
   23.7151     77.96     78.27    -27.31     20.00
   23.7253     77.99     77.99    -27.00     20.00
   23.7355     77.44     77.71    -27.28     20.00
   23.7456     78.05     77.45    -26.40     20.00
   23.7558     75.27     77.18    -28.92     20.00
   23.7660     75.95     76.92    -27.98     20.00
   23.7761     75.47     76.67    -28.20     20.00
   23.7863     74.37     76.42    -29.05     20.00
   23.7965     76.29     76.17    -26.88     20.00
   23.8066     74.47     75.93    -28.46     20.00
   23.8168     75.28     75.69    -27.41     20.00
   23.8270     73.44     75.45    -29.01     20.00
   23.8371     73.90     75.22    -28.32     20.00
   23.8473     73.87     74.99    -28.12     20.00
   23.8574     73.29     74.76    -28.48     20.00
   23.8676     71.94     74.54    -29.60     20.00
   23.8778     72.30     74.32    -29.02     20.00
   23.8879     71.59     74.10    -29.51     20.00
   23.8981     72.64     73.88    -28.25     20.00
   23.9083     72.12     73.67    -28.55     20.00
   23.9184     70.87     73.46    -29.59     20.00
   23.9286     69.60     73.25    -30.66     20.00
   23.9388     72.70     73.05    -27.35     20.00
   23.9489     69.89     72.84    -29.96     20.00
   23.9591     70.33     72.64    -29.32     20.00
   23.9693     69.76     72.44    -29.69     20.00
   23.9794     69.12     72.25    -30.13     20.00
   23.9896     69.76     72.05    -29.29     20.00
   23.9997     69.00     71.86    -29.86     20.00
   24.0099     69.84     71.66    -28.83     20.00
   24.0201     68.46     71.47    -30.02     20.00
   24.0302     68.98     71.29    -29.31     20.00
   24.0404     68.90     71.10    -29.20     20.00
   24.0506     67.22     70.91    -30.70     20.00
   24.0607     68.76     70.73    -28.98     20.00
   24.0709     68.18     70.55    -29.37     20.00
   24.0811     67.89     70.37    -29.48     20.00
   24.0912     67.74     70.19    -29.45     20.00
   24.1014     66.12     70.01    -30.90     20.00
   24.1116     66.47     69.84    -30.37     20.00
   24.1217     66.98     69.66    -29.69     20.00
   24.1319     66.14     69.49    -30.35     20.00
   24.1421     66.26     69.31    -30.06     20.00
   24.1522     65.92     69.14    -30.23     20.00
   24.1624     65.26     68.97    -30.72     20.00
   24.1725     64.66     68.81    -31.15     20.00
   24.1827     66.18     68.64    -29.46     20.00
   24.1929     64.01     68.47    -31.46     20.00
   24.2030     65.28     68.31    -30.03     20.00
   24.2132     65.30     68.14    -29.85     20.00
   24.2234     64.79     67.98    -30.19     20.00
   24.2335     65.63     67.82    -29.19     20.00
   24.2437     64.94     67.65    -29.72     20.00
   24.2539     64.00     67.49    -30.50     20.00
   24.2640     63.35     67.33    -30.99     20.00
   24.2742     63.66     67.17    -30.52     20.00
   24.2844     64.71     67.02    -29.31     20.00
   24.2945     63.48     66.86    -30.38     20.00
   24.3047     63.35     66.70    -30.36     20.00
   24.3148     62.87     66.55    -30.68     20.00
   24.3250     62.79     66.39    -30.61     20.00
   24.3352     63.03     66.24    -30.21     20.00
   24.3453     62.08     66.09    -31.01     20.00
   24.3555     63.22     65.94    -29.72     20.00
   24.3657     63.58     65.78    -29.21     20.00
   24.3758     61.94     65.64    -30.70     20.00
   24.3860     60.83     65.49    -31.66     20.00
   24.3962     62.01     65.34    -30.33     20.00
   24.4063     62.77     65.19    -29.42     20.00
   24.4165     62.08     65.04    -29.97     20.00
   24.4267     62.68     64.89    -29.22     20.00
   24.4368     60.62     64.75    -31.13     20.00
   24.4470     60.98     64.60    -30.63     20.00
   24.4572     62.49     64.46    -28.97     20.00
   24.4673     61.20     64.32    -30.12     20.00
   24.4775     60.82     64.17    -30.36     20.00
   24.4876     60.12     64.03    -30.92     20.00
   24.4978     60.91     63.89    -29.98     20.00
   24.5080     59.87     63.75    -30.88     20.00
   24.5181     61.89     63.61    -28.72     20.00
   24.5283     60.78     63.47    -29.69     20.00
   24.5385     60.95     63.33    -29.38     20.00
   24.5486     60.65     63.19    -29.55     20.00
   24.5588     61.43     63.05    -28.63     20.00
   24.5690     59.89     62.92    -30.03     20.00
   24.5791     59.29     62.78    -30.49     20.00
   24.5893     59.98     62.64    -29.67     20.00
   24.5995     59.66     62.51    -29.85     20.00
   24.6096     59.26     62.37    -30.12     20.00
   24.6198     58.40     62.24    -30.84     20.00
   24.6299     60.08     62.11    -29.03     20.00
   24.6401     58.50     61.97    -30.48     20.00
   24.6503     59.46     61.84    -29.38     20.00
   24.6604     58.63     61.71    -30.08     20.00
   24.6706     59.49     61.58    -29.09     20.00
   24.6808     58.28     61.45    -30.17     20.00
   24.6909     58.67     61.32    -29.65     20.00
   24.7011     58.73     61.19    -29.46     20.00
   24.7113     58.56     61.06    -29.50     20.00
   24.7214     58.75     60.93    -29.18     20.00
   24.7316     59.05     60.80    -28.76     20.00
   24.7418     58.16     60.67    -29.52     20.00
   24.7519     57.55     60.55    -30.00     20.00
   24.7621     58.45     60.42    -28.97     20.00
   24.7723     58.15     60.29    -29.15     20.00
   24.7824     59.12     60.17    -28.05     20.00
   24.7926     58.21     60.05    -28.84     20.00
   24.8027     57.02     59.92    -29.91     20.00
   24.8129     57.43     59.80    -29.37     20.00
   24.8231     58.29     59.67    -28.39     20.00
   24.8332     56.86     59.55    -29.70     20.00
   24.8434     57.17     59.43    -29.26     20.00
   24.8536     56.23     59.31    -30.08     20.00
   24.8637     57.05     59.19    -29.14     20.00
   24.8739     57.27     59.07    -28.80     20.00
   24.8841     56.60     58.95    -29.35     20.00
   24.8942     56.52     58.83    -29.31     20.00
   24.9044     59.09     58.71    -26.62     20.00
   24.9146     56.88     58.59    -28.71     20.00
   24.9247     56.96     58.47    -28.51     20.00
   24.9349     55.25     58.35    -30.11     20.00
   24.9450     56.57     58.24    -28.67     20.00
   24.9552     57.29     58.12    -27.83     20.00
   24.9654     56.55     58.00    -28.46     20.00
   24.9755     56.34     57.89    -28.55     20.00
   24.9857     56.98     57.77    -27.80     20.00
   24.9959     56.50     57.66    -28.16     20.00
   25.0060     57.23     57.54    -27.32     20.00
   25.0162     56.21     57.43    -28.22     20.00
   25.0264     56.73     57.31    -27.59     20.00
   25.0365     55.45     57.20    -28.76     20.00
   25.0467     55.59     57.09    -28.50     20.00
   25.0569     57.25     56.98    -26.73     20.00
   25.0670     55.65     56.87    -28.22     20.00
   25.0772     56.33     56.75    -27.43     20.00
   25.0874     55.90     56.64    -27.75     20.00
   25.0975     55.38     56.53    -28.16     20.00
   25.1077     55.79     56.42    -27.64     20.00
   25.1178     56.45     56.31    -26.87     20.00
   25.1280     55.33     56.20    -27.88     20.00
   25.1382     53.99     56.10    -29.11     20.00
   25.1483     55.64     55.99    -27.35     20.00
   25.1585     55.70     55.88    -27.18     20.00
   25.1687     56.35     55.77    -26.43     20.00
   25.1788     54.91     55.67    -27.76     20.00
   25.1890     55.15     55.56    -27.41     20.00
   25.1992     54.99     55.45    -27.47     20.00
   25.2093     55.58     55.35    -26.77     20.00
   25.2195     55.23     55.24    -27.02     20.00
   25.2297     55.18     55.14    -26.96     20.00
   25.2398     55.16     55.03    -26.88     20.00
   25.2500     53.96     54.93    -27.97     20.00
   25.2601     55.79     54.83    -26.04     20.00
   25.2703     55.01     54.72    -26.72     20.00
   25.2805     54.98     54.62    -26.65     20.00
   25.2906     55.99     54.52    -25.53     20.00
   25.3008     54.45     54.42    -26.97     20.00
   25.3110     55.24     54.32    -26.08     20.00
   25.3211     55.57     54.22    -25.65     20.00
   25.3313     54.46     54.12    -26.66     20.00
   25.3415     53.38     54.02    -27.64     20.00
   25.3516     55.80     53.92    -25.12     20.00
   25.3618     54.08     53.82    -26.74     20.00
   25.3720     55.01     53.72    -25.71     20.00
   25.3821     54.78     53.62    -25.84     20.00
   25.3923     54.04     53.52    -26.49     20.00
   25.4024     54.15     53.43    -26.28     20.00
   25.4126     54.84     53.33    -25.49     20.00
   25.4228     54.49     53.23    -25.75     20.00
   25.4329     54.21     53.14    -25.93     20.00
   25.4431     53.80     53.04    -26.24     20.00
   25.4533     54.40     52.94    -25.55     20.00
   25.4634     53.15     52.85    -26.70     20.00
   25.4736     54.95     52.75    -24.81     20.00
   25.4838     54.38     52.66    -25.28     20.00
   25.4939     54.98     52.57    -24.59     20.00
   25.5041     53.73     52.47    -25.75     20.00
   25.5143     54.16     52.38    -25.22     20.00
   25.5244     53.34     52.29    -25.95     20.00
   25.5346     54.80     52.20    -24.40     20.00
   25.5448     53.94     52.10    -25.17     20.00
   25.5549     53.45     52.01    -25.57     20.00
   25.5651     53.10     51.92    -25.83     20.00
   25.5752     53.85     51.83    -24.99     20.00
   25.5854     54.13     51.74    -24.61     20.00
   25.5956     53.26     51.65    -25.39     20.00
   25.6057     53.17     51.56    -25.40     20.00
   25.6159     53.99     51.47    -24.49     20.00
   25.6261     52.95     51.38    -25.44     20.00
   25.6362     53.50     51.30    -24.80     20.00
   25.6464     54.15     51.21    -24.06     20.00
   25.6566     53.48     51.12    -24.65     20.00
   25.6667     51.90     51.03    -26.14     20.00
   25.6769     53.31     50.95    -24.64     20.00
   25.6871     54.00     50.86    -23.87     20.00
   25.6972     53.85     50.78    -23.93     20.00
   25.7074     52.96     50.69    -24.74     20.00
   25.7175     54.04     50.61    -23.57     20.00
   25.7277     52.71     50.52    -24.82     20.00
   25.7379     52.68     50.44    -24.76     20.00
   25.7480     52.68     50.35    -24.68     20.00
   25.7582     54.13     50.27    -23.15     20.00
   25.7684     52.92     50.19    -24.27     20.00
   25.7785     52.64     50.11    -24.47     20.00
   25.7887     53.30     50.02    -23.73     20.00
   25.7989     52.25     49.94    -24.70     20.00
   25.8090     51.91     49.86    -24.96     20.00
   25.8192     52.34     49.78    -24.44     20.00
   25.8294     52.92     49.70    -23.78     20.00
   25.8395     52.78     49.62    -23.84     20.00
   25.8497     51.66     49.54    -24.88     20.00
   25.8599     52.12     49.46    -24.35     20.00
   25.8700     51.34     49.38    -25.05     20.00
   25.8802     50.93     49.30    -25.38     20.00
   25.8903     52.49     49.23    -23.74     20.00
   25.9005     52.76     49.15    -23.39     20.00
   25.9107     51.79     49.07    -24.29     20.00
   25.9208     50.07     49.00    -25.93     20.00
   25.9310     52.46     48.92    -23.46     20.00
   25.9412     51.47     48.84    -24.38     20.00
   25.9513     51.43     48.77    -24.34     20.00
   25.9615     52.16     48.69    -23.54     20.00
   25.9717     52.37     48.62    -23.25     20.00
   25.9818     52.97     48.55    -22.58     20.00
   25.9920     51.78     48.47    -23.70     20.00
   26.0022     51.90     48.40    -23.50     20.00
   26.0123     51.51     48.33    -23.82     20.00
   26.0225     50.68     48.25    -24.58     20.00
   26.0326     50.01     48.18    -25.18     20.00
   26.0428     51.17     48.11    -23.94     20.00
   26.0530     50.48     48.04    -24.56     20.00
   26.0631     50.51     47.97    -24.46     20.00
   26.0733     50.34     47.90    -24.56     20.00
   26.0835     50.77     47.83    -24.06     20.00
   26.0936     50.62     47.76    -24.14     20.00
   26.1038     50.26     47.69    -24.43     20.00
   26.1140     49.98     47.62    -24.64     20.00
   26.1241     50.21     47.55    -24.35     20.00
   26.1343     50.93     47.49    -23.56     20.00
   26.1445     50.90     47.42    -23.52     20.00
   26.1546     50.43     47.35    -23.93     20.00
   26.1648     49.55     47.29    -24.74     20.00
   26.1750     50.29     47.22    -23.93     20.00
   26.1851     49.98     47.15    -24.18     20.00
   26.1953     50.62     47.09    -23.47     20.00
   26.2054     50.48     47.03    -23.55     20.00
   26.2156     49.68     46.96    -24.29     20.00
   26.2258     49.31     46.90    -24.59     20.00
   26.2359     50.02     46.84    -23.82     20.00
   26.2461     49.72     46.77    -24.06     20.00
   26.2563     51.23     46.71    -22.48     20.00
   26.2664     49.73     46.65    -23.92     20.00
   26.2766     48.55     46.59    -25.04     20.00
   26.2868     49.91     46.53    -23.62     20.00
   26.2969     50.29     46.47    -23.18     20.00
   26.3071     49.74     46.41    -23.67     20.00
   26.3173     49.46     46.35    -23.89     20.00
   26.3274     49.66     46.29    -23.64     20.00
   26.3376     50.17     46.23    -23.07     20.00
   26.3477     49.66     46.18    -23.52     20.00
   26.3579     48.55     46.12    -24.57     20.00
   26.3681     49.57     46.06    -23.50     20.00
   26.3782     49.09     46.01    -23.92     20.00
   26.3884     48.80     45.95    -24.16     20.00
   26.3986     49.12     45.90    -23.78     20.00
   26.4087     48.78     45.84    -24.07     20.00
   26.4189     49.10     45.79    -23.70     20.00
   26.4291     48.89     45.74    -23.85     20.00
   26.4392     49.06     45.69    -23.63     20.00
   26.4494     49.25     45.63    -23.39     20.00
   26.4596     48.63     45.58    -23.96     20.00
   26.4697     47.34     45.53    -25.20     20.00
   26.4799     48.62     45.48    -23.87     20.00
   26.4901     49.65     45.43    -22.79     20.00
   26.5002     48.91     45.39    -23.48     20.00
   26.5104     48.72     45.34    -23.62     20.00
   26.5205     48.84     45.29    -23.45     20.00
   26.5307     48.84     45.24    -23.41     20.00
   26.5409     47.41     45.20    -24.79     20.00
   26.5510     48.23     45.15    -23.93     20.00
   26.5612     47.77     45.11    -24.34     20.00
   26.5714     48.18     45.07    -23.89     20.00
   26.5815     48.35     45.02    -23.68     20.00
   26.5917     47.55     44.98    -24.43     20.00
   26.6019     48.04     44.94    -23.90     20.00
   26.6120     48.04     44.90    -23.86     20.00
   26.6222     48.02     44.86    -23.84     20.00
   26.6324     47.77     44.82    -24.05     20.00
   26.6425     47.49     44.78    -24.29     20.00
   26.6527     46.90     44.74    -24.85     20.00
   26.6628     47.30     44.71    -24.41     20.00
   26.6730     48.26     44.67    -23.42     20.00
   26.6832     46.93     44.64    -24.71     20.00
   26.6933     46.97     44.60    -24.64     20.00
   26.7035     48.04     44.57    -23.53     20.00
   26.7137     47.89     44.54    -23.65     20.00
   26.7238     48.34     44.51    -23.17     20.00
   26.7340     48.18     44.48    -23.30     20.00
   26.7442     47.93     44.45    -23.52     20.00
   26.7543     47.87     44.42    -23.55     20.00
   26.7645     46.93     44.39    -24.47     20.00
   26.7747     48.56     44.37    -22.81     20.00
   26.7848     48.23     44.34    -23.12     20.00
   26.7950     47.91     44.32    -23.41     20.00
   26.8052     48.17     44.29    -23.13     20.00
   26.8153     47.62     44.27    -23.66     20.00
   26.8255     47.07     44.25    -24.19     20.00
   26.8356     47.86     44.23    -23.38     20.00
   26.8458     48.15     44.22    -23.07     20.00
   26.8560     47.00     44.20    -24.20     20.00
   26.8661     48.21     44.18    -22.98     20.00
   26.8763     47.48     44.17    -23.69     20.00
   26.8865     47.60     44.16    -23.56     20.00
   26.8966     46.92     44.15    -24.23     20.00
   26.9068     47.70     44.14    -23.44     20.00
   26.9170     46.54     44.13    -24.59     20.00
   26.9271     47.39     44.12    -23.74     20.00
   26.9373     46.97     44.12    -24.15     20.00
   26.9475     46.63     44.11    -24.49     20.00
   26.9576     47.23     44.11    -23.89     20.00
   26.9678     48.04     44.11    -23.07     20.00
   26.9779     45.98     44.11    -25.14     20.00
   26.9881     46.98     44.11    -24.14     20.00
   26.9983     47.15     44.12    -23.97     20.00
   27.0084     47.94     44.13    -23.19     20.00
   27.0186     47.25     44.13    -23.89     20.00
   27.0288     47.77     44.14    -23.38     20.00
   27.0389     47.26     44.16    -23.90     20.00
   27.0491     46.87     44.17    -24.30     20.00
   27.0593     47.35     44.18    -23.84     20.00
   27.0694     47.05     44.20    -24.16     20.00
   27.0796     47.98     44.22    -23.25     20.00
   27.0898     46.38     44.24    -24.87     20.00
   27.0999     47.71     44.27    -23.56     20.00
   27.1101     46.85     44.29    -24.45     20.00
   27.1202     46.76     44.32    -24.57     20.00
   27.1304     46.57     44.35    -24.79     20.00
   27.1406     47.80     44.39    -23.59     20.00
   27.1507     46.02     44.42    -25.41     20.00
   27.1609     47.73     44.46    -23.73     20.00
   27.1711     45.47     44.50    -26.03     20.00
   27.1812     46.24     44.54    -25.31     20.00
   27.1914     46.66     44.59    -24.93     20.00
   27.2016     46.71     44.64    -24.93     20.00
   27.2117     47.47     44.69    -24.22     20.00
   27.2219     46.46     44.74    -25.28     20.00
   27.2321     46.41     44.80    -25.39     20.00
   27.2422     46.29     44.85    -25.57     20.00
   27.2524     46.39     44.92    -25.53     20.00
   27.2626     46.27     44.98    -25.71     20.00
   27.2727     46.35     45.05    -25.70     20.00
   27.2829     46.87     45.12    -25.25     20.00
   27.2930     47.10     45.19    -25.09     20.00
   27.3032     47.29     45.27    -24.98     20.00
   27.3134     46.97     45.35    -25.38     20.00
   27.3235     47.79     45.43    -24.64     20.00
   27.3337     47.49     45.51    -25.03     20.00
   27.3439     46.79     45.60    -25.82     20.00
   27.3540     47.06     45.70    -25.64     20.00
   27.3642     46.25     45.79    -26.55     20.00
   27.3744     47.12     45.89    -25.78     20.00
   27.3845     46.45     45.99    -26.55     20.00
   27.3947     47.29     46.10    -25.81     20.00
   27.4049     47.82     46.21    -25.39     20.00
   27.4150     47.84     46.32    -25.49     20.00
   27.4252     47.61     46.44    -25.83     20.00
   27.4353     47.40     46.56    -26.16     20.00
   27.4455     46.99     46.68    -26.70     20.00
   27.4557     46.72     46.81    -27.10     20.00
   27.4658     47.05     46.94    -26.90     20.00
   27.4760     47.42     47.08    -26.66     20.00
   27.4862     48.15     47.22    -26.07     20.00
   27.4963     47.96     47.36    -26.40     20.00
   27.5065     47.58     47.51    -26.93     20.00
   27.5167     48.12     47.66    -26.54     20.00
   27.5268     47.54     47.81    -27.28     20.00
   27.5370     47.99     47.97    -26.98     20.00
   27.5472     48.12     48.13    -27.02     20.00
   27.5573     47.87     48.30    -27.43     20.00
   27.5675     49.55     48.47    -25.93     20.00
   27.5777     47.74     48.65    -27.91     20.00
   27.5878     48.87     48.82    -26.96     20.00
   27.5980     47.62     49.01    -28.39     20.00
   27.6081     48.05     49.19    -28.15     20.00
   27.6183     47.96     49.39    -28.43     20.00
   27.6285     47.71     49.58    -28.87     20.00
   27.6386     48.29     49.78    -28.49     20.00
   27.6488     48.35     49.98    -28.64     20.00
   27.6590     48.99     50.19    -28.21     20.00
   27.6691     48.91     50.40    -28.50     20.00
   27.6793     49.13     50.62    -28.49     20.00
   27.6895     49.63     50.84    -28.21     20.00
   27.6996     49.59     51.06    -28.47     20.00
   27.7098     49.74     51.29    -28.55     20.00
   27.7200     49.80     51.52    -28.73     20.00
   27.7301     49.96     51.76    -28.80     20.00
   27.7403     50.38     52.00    -28.62     20.00
   27.7504     50.21     52.24    -29.03     20.00
   27.7606     51.69     52.49    -27.80     20.00
   27.7708     50.70     52.74    -29.04     20.00
   27.7809     51.26     52.99    -28.74     20.00
   27.7911     52.48     53.25    -27.78     20.00
   27.8013     50.96     53.52    -29.56     20.00
   27.8114     50.78     53.78    -30.01     20.00
   27.8216     51.98     54.06    -29.08     20.00
   27.8318     53.58     54.33    -27.75     20.00
   27.8419     51.62     54.61    -29.99     20.00
   27.8521     53.23     54.89    -28.66     20.00
   27.8623     53.52     55.17    -28.66     20.00
   27.8724     52.88     55.46    -29.58     20.00
   27.8826     53.33     55.75    -29.42     20.00
   27.8928     54.41     56.04    -28.64     20.00
   27.9029     53.71     56.34    -29.63     20.00
   27.9131     53.88     56.64    -29.76     20.00
   27.9232     55.24     56.94    -28.70     20.00
   27.9334     55.44     57.24    -28.81     20.00
   27.9436     54.23     57.55    -30.33     20.00
   27.9537     55.24     57.86    -29.62     20.00
   27.9639     55.26     58.17    -29.92     20.00
   27.9741     56.59     58.49    -28.90     20.00
   27.9842     56.20     58.80    -29.60     20.00
   27.9944     56.80     59.12    -29.32     20.00
   28.0046     56.48     59.44    -29.96     20.00
   28.0147     57.15     59.75    -29.61     20.00
   28.0249     57.60     60.08    -29.48     20.00
   28.0351     57.65     60.40    -29.75     20.00
   28.0452     58.43     60.72    -29.29     20.00
   28.0554     58.57     61.05    -29.48     20.00
   28.0655     57.84     61.37    -30.53     20.00
   28.0757     60.40     61.69    -28.30     20.00
   28.0859     59.99     62.02    -29.03     20.00
   28.0960     60.00     62.34    -29.34     20.00
   28.1062     60.50     62.66    -29.16     20.00
   28.1164     61.84     62.98    -28.15     20.00
   28.1265     61.63     63.30    -28.67     20.00
   28.1367     62.13     63.62    -28.49     20.00
   28.1469     62.54     63.94    -28.40     20.00
   28.1570     63.95     64.25    -27.30     20.00
   28.1672     63.67     64.56    -27.90     20.00
   28.1774     64.22     64.87    -27.66     20.00
   28.1875     63.38     65.18    -28.80     20.00
   28.1977     63.92     65.48    -28.57     20.00
   28.2079     64.52     65.78    -28.27     20.00
   28.2180     66.10     66.08    -26.98     20.00
   28.2282     66.99     66.37    -26.38     20.00
   28.2383     66.74     66.65    -26.91     20.00
   28.2485     66.05     66.93    -27.88     20.00
   28.2587     66.43     67.21    -27.78     20.00
   28.2688     67.74     67.47    -26.74     20.00
   28.2790     67.17     67.74    -27.57     20.00
   28.2892     68.30     67.99    -26.70     20.00
   28.2993     68.30     68.24    -26.94     20.00
   28.3095     68.09     68.48    -27.39     20.00
   28.3197     70.32     68.71    -25.40     20.00
   28.3298     71.02     68.94    -24.92     20.00
   28.3400     71.04     69.15    -25.12     20.00
   28.3502     70.42     69.36    -25.94     20.00
   28.3603     71.10     69.56    -25.46     20.00
   28.3705     71.93     69.74    -24.82     20.00
   28.3806     71.42     69.92    -25.50     20.00
   28.3908     72.45     70.09    -24.64     20.00
   28.4010     71.24     70.25    -26.01     20.00
   28.4111     71.61     70.39    -25.78     20.00
   28.4213     72.51     70.52    -25.02     20.00
   28.4315     72.70     70.65    -24.95     20.00
   28.4416     72.43     70.76    -25.33     20.00
   28.4518     72.11     70.86    -25.75     20.00
   28.4620     72.51     70.94    -25.44     20.00
   28.4721     74.18     71.02    -23.84     20.00
   28.4823     73.80     71.08    -24.28     20.00
   28.4925     72.77     71.13    -25.36     20.00
   28.5026     71.51     71.16    -26.66     20.00
   28.5128     73.91     71.19    -24.28     20.00
   28.5230     73.24     71.20    -24.96     20.00
   28.5331     73.79     71.19    -24.41     20.00
   28.5433     73.94     71.18    -24.24     20.00
   28.5534     71.59     71.15    -26.56     20.00
   28.5636     72.72     71.11    -25.39     20.00
   28.5738     73.17     71.06    -24.89     20.00
   28.5839     73.53     70.99    -24.46     20.00
   28.5941     71.91     70.91    -26.00     20.00
   28.6043     74.40     70.82    -23.42     20.00
   28.6144     73.40     70.71    -24.32     20.00
   28.6246     73.10     70.60    -24.50     20.00
   28.6348     71.93     70.47    -25.54     20.00
   28.6449     72.52     70.33    -24.81     20.00
   28.6551     71.51     70.18    -25.67     20.00
   28.6653     70.79     70.02    -26.23     20.00
   28.6754     71.02     69.85    -25.83     20.00
   28.6856     71.26     69.66    -25.41     20.00
   28.6957     71.70     69.47    -24.77     20.00
   28.7059     69.27     69.27    -27.00     20.00
   28.7161     70.41     69.05    -25.65     20.00
   28.7262     69.45     68.83    -26.39     20.00
   28.7364     69.41     68.60    -26.20     20.00
   28.7466     68.51     68.36    -26.86     20.00
   28.7567     69.42     68.12    -25.70     20.00
   28.7669     68.23     67.87    -26.64     20.00
   28.7771     69.24     67.60    -25.37     20.00
   28.7872     68.17     67.34    -26.17     20.00
   28.7974     67.18     67.06    -26.89     20.00
   28.8076     65.63     66.78    -28.15     20.00
   28.8177     67.77     66.50    -25.73     20.00
   28.8279     67.10     66.20    -26.11     20.00
   28.8381     66.37     65.91    -26.54     20.00
   28.8482     65.90     65.61    -26.71     20.00
   28.8584     64.98     65.30    -27.33     20.00
   28.8685     64.70     64.99    -27.30     20.00
   28.8787     64.41     64.68    -27.27     20.00
   28.8889     64.32     64.36    -27.05     20.00
   28.8990     62.57     64.05    -28.48     20.00
   28.9092     62.33     63.73    -28.40     20.00
   28.9194     63.22     63.40    -27.18     20.00
   28.9295     63.26     63.08    -26.82     20.00
   28.9397     62.00     62.75    -27.75     20.00
   28.9499     61.82     62.42    -27.60     20.00
   28.9600     60.90     62.09    -28.20     20.00
   28.9702     60.68     61.76    -28.09     20.00
   28.9804     59.51     61.43    -28.92     20.00
   28.9905     60.04     61.10    -28.06     20.00
   29.0007     59.62     60.77    -28.15     20.00
   29.0108     59.55     60.44    -27.89     20.00
   29.0210     59.57     60.11    -27.54     20.00
   29.0312     58.91     59.78    -27.87     20.00
   29.0413     58.24     59.45    -28.21     20.00
   29.0515     57.95     59.12    -28.17     20.00
   29.0617     57.99     58.79    -27.81     20.00
   29.0718     57.72     58.47    -27.75     20.00
   29.0820     57.15     58.14    -28.00     20.00
   29.0922     56.59     57.82    -28.23     20.00
   29.1023     55.87     57.50    -28.63     20.00
   29.1125     55.71     57.18    -28.47     20.00
   29.1227     54.50     56.86    -29.37     20.00
   29.1328     55.11     56.55    -28.44     20.00
   29.1430     54.90     56.24    -28.34     20.00
   29.1531     54.41     55.93    -28.52     20.00
   29.1633     52.61     55.62    -30.01     20.00
   29.1735     55.01     55.32    -27.31     20.00
   29.1836     54.39     55.02    -27.63     20.00
   29.1938     52.95     54.72    -28.77     20.00
   29.2040     54.31     54.42    -27.11     20.00
   29.2141     52.49     54.13    -28.64     20.00
   29.2243     52.04     53.84    -28.80     20.00
   29.2345     51.86     53.55    -28.70     20.00
   29.2446     52.38     53.27    -27.89     20.00
   29.2548     51.71     52.99    -28.28     20.00
   29.2650     51.96     52.71    -27.76     20.00
   29.2751     51.15     52.44    -28.30     20.00
   29.2853     51.41     52.17    -27.77     20.00
   29.2955     51.10     51.90    -27.81     20.00
   29.3056     50.43     51.64    -28.22     20.00
   29.3158     50.48     51.38    -27.91     20.00
   29.3259     49.91     51.13    -28.22     20.00
   29.3361     50.16     50.88    -27.72     20.00
   29.3463     49.15     50.63    -28.48     20.00
   29.3564     49.39     50.39    -28.00     20.00
   29.3666     49.91     50.15    -27.24     20.00
   29.3768     48.97     49.91    -27.94     20.00
   29.3869     49.24     49.68    -27.44     20.00
   29.3971     48.96     49.45    -27.49     20.00
   29.4073     47.54     49.22    -28.68     20.00
   29.4174     48.66     49.00    -27.34     20.00
   29.4276     48.65     48.78    -27.13     20.00
   29.4378     47.35     48.56    -28.22     20.00
   29.4479     48.31     48.35    -27.05     20.00
   29.4581     47.43     48.14    -27.72     20.00
   29.4682     47.30     47.94    -27.65     20.00
   29.4784     47.08     47.74    -27.66     20.00
   29.4886     46.78     47.54    -27.77     20.00
   29.4987     45.72     47.35    -28.63     20.00
   29.5089     47.82     47.16    -26.34     20.00
   29.5191     46.66     46.97    -27.32     20.00
   29.5292     46.39     46.79    -27.41     20.00
   29.5394     46.29     46.61    -27.32     20.00
   29.5496     45.77     46.43    -27.67     20.00
   29.5597     45.54     46.26    -27.73     20.00
   29.5699     45.85     46.09    -27.25     20.00
   29.5801     45.30     45.92    -27.63     20.00
   29.5902     44.89     45.76    -27.88     20.00
   29.6004     45.23     45.60    -27.38     20.00
   29.6106     45.15     45.44    -27.30     20.00
   29.6207     44.82     45.29    -27.48     20.00
   29.6309     45.20     45.14    -26.94     20.00
   29.6410     45.24     44.99    -26.76     20.00
   29.6512     44.33     44.85    -27.52     20.00
   29.6614     44.08     44.71    -27.63     20.00
   29.6715     46.21     44.57    -25.36     20.00
   29.6817     44.10     44.43    -27.33     20.00
   29.6919     44.09     44.30    -27.21     20.00
   29.7020     43.87     44.16    -27.30     20.00
   29.7122     42.85     44.04    -28.19     20.00
   29.7224     43.94     43.91    -26.97     20.00
   29.7325     44.49     43.79    -26.30     20.00
   29.7427     44.20     43.66    -26.47     20.00
   29.7529     44.09     43.55    -26.46     20.00
   29.7630     44.20     43.43    -26.23     20.00
   29.7732     44.09     43.31    -26.23     20.00
   29.7833     43.29     43.20    -26.92     20.00
   29.7935     43.82     43.09    -26.28     20.00
   29.8037     44.29     42.98    -25.70     20.00
   29.8138     43.39     42.88    -26.49     20.00
   29.8240     43.87     42.77    -25.91     20.00
   29.8342     42.26     42.67    -27.42     20.00
   29.8443     41.70     42.57    -27.88     20.00
   29.8545     42.91     42.47    -26.57     20.00
   29.8647     41.96     42.38    -27.42     20.00
   29.8748     43.11     42.28    -26.18     20.00
   29.8850     42.74     42.19    -26.45     20.00
   29.8952     43.67     42.10    -25.43     20.00
   29.9053     43.13     42.01    -25.88     20.00
   29.9155     43.27     41.92    -25.65     20.00
   29.9257     41.77     41.83    -27.06     20.00
   29.9358     43.12     41.74    -25.63     20.00
   29.9460     43.76     41.66    -24.90     20.00
   29.9561     42.16     41.58    -26.42     20.00
   29.9663     42.36     41.49    -26.14     20.00
   29.9765     42.74     41.41    -25.68     20.00
   29.9866     42.29     41.33    -26.05     20.00
   29.9968     43.04     41.25    -25.22     20.00
   30.0070     42.59     41.17    -25.59     20.00
   30.0171     42.39     41.10    -25.71     20.00
   30.0273     42.21     41.02    -25.82     20.00
   30.0375     40.77     40.95    -27.18     20.00
   30.0476     41.87     40.87    -26.01     20.00
   30.0578     41.09     40.80    -26.71     20.00
   30.0680     41.68     40.72    -26.05     20.00
   30.0781     42.35     40.65    -25.31     20.00
   30.0883     42.44     40.58    -25.15     20.00
   30.0984     41.59     40.51    -25.93     20.00
   30.1086     41.10     40.44    -26.34     20.00
   30.1188     41.96     40.37    -25.42     20.00
   30.1289     42.40     40.30    -24.91     20.00
   30.1391     40.96     40.23    -26.28     20.00
   30.1493     40.68     40.17    -26.49     20.00
   30.1594     41.75     40.10    -25.35     20.00
   30.1696     40.73     40.03    -26.31     20.00
   30.1798     41.38     39.96    -25.59     20.00
   30.1899     41.41     39.90    -25.49     20.00
   30.2001     39.85     39.83    -26.99     20.00
   30.2103     41.18     39.77    -25.59     20.00
   30.2204     40.80     39.70    -25.91     20.00
   30.2306     40.66     39.64    -25.98     20.00
   30.2408     40.08     39.57    -26.49     20.00
   30.2509     39.93     39.51    -26.58     20.00
   30.2611     39.45     39.44    -27.00     20.00
   30.2712     39.99     39.38    -26.39     20.00
   30.2814     39.97     39.31    -26.35     20.00
   30.2916     39.08     39.25    -27.17     20.00
   30.3017     40.29     39.19    -25.90     20.00
   30.3119     40.21     39.12    -25.92     20.00
   30.3221     38.96     39.06    -27.10     20.00
   30.3322     39.35     39.00    -26.65     20.00
   30.3424     39.86     38.93    -26.08     20.00
   30.3526     38.66     38.87    -27.21     20.00
   30.3627     39.51     38.81    -26.30     20.00
   30.3729     39.88     38.74    -25.87     20.00
   30.3831     38.20     38.68    -27.49     20.00
   30.3932     39.15     38.62    -26.47     20.00
   30.4034     38.74     38.56    -26.82     20.00
   30.4135     39.73     38.49    -25.77     20.00
   30.4237     38.80     38.43    -26.64     20.00
   30.4339     39.21     38.37    -26.16     20.00
   30.4440     38.07     38.31    -27.24     20.00
   30.4542     38.06     38.24    -27.19     20.00
   30.4644     37.25     38.18    -27.94     20.00
   30.4745     38.14     38.12    -26.98     20.00
   30.4847     37.90     38.06    -27.16     20.00
   30.4949     38.08     37.99    -26.92     20.00
   30.5050     37.74     37.93    -27.20     20.00
   30.5152     36.98     37.87    -27.89     20.00
   30.5254     37.54     37.81    -27.27     20.00
   30.5355     36.62     37.75    -28.13     20.00
   30.5457     37.60     37.68    -27.09     20.00
   30.5559     36.84     37.62    -27.78     20.00
   30.5660     36.15     37.56    -28.41     20.00
   30.5762     36.55     37.50    -27.95     20.00
   30.5863     36.02     37.43    -28.42     20.00
   30.5965     36.01     37.37    -28.37     20.00
   30.6067     36.46     37.31    -27.85     20.00
   30.6168     36.09     37.25    -28.16     20.00
   30.6270     37.07     37.19    -27.12     20.00
   30.6372     35.93     37.12    -28.20     20.00
   30.6473     36.34     37.06    -27.73     20.00
   30.6575     35.71     37.00    -28.30     20.00
   30.6677     36.38     36.94    -27.56     20.00
   30.6778     36.12     36.88    -27.76     20.00
   30.6880     35.93     36.82    -27.89     20.00
   30.6982     35.51     36.76    -28.25     20.00
   30.7083     35.88     36.69    -27.82     20.00
   30.7185     35.04     36.63    -28.60     20.00
   30.7286     35.62     36.57    -27.96     20.00
   30.7388     35.30     36.51    -28.22     20.00
   30.7490     35.61     36.45    -27.84     20.00
   30.7591     34.62     36.39    -28.77     20.00
   30.7693     35.65     36.33    -27.68     20.00
   30.7795     34.63     36.27    -28.64     20.00
   30.7896     35.88     36.21    -27.33     20.00
   30.7998     35.65     36.15    -27.50     20.00
   30.8100     34.71     36.09    -28.38     20.00
   30.8201     35.65     36.03    -27.38     20.00
   30.8303     36.08     35.97    -26.89     20.00
   30.8405     34.48     35.91    -28.43     20.00
   30.8506     34.96     35.85    -27.90     20.00
   30.8608     34.70     35.79    -28.10     20.00
   30.8710     34.96     35.73    -27.78     20.00
   30.8811     35.36     35.67    -27.32     20.00
   30.8913     34.33     35.62    -28.29     20.00
   30.9014     33.65     35.56    -28.91     20.00
   30.9116     34.29     35.50    -28.21     20.00
   30.9218     34.13     35.44    -28.32     20.00
   30.9319     35.43     35.39    -26.96     20.00
   30.9421     34.09     35.33    -28.24     20.00
   30.9523     35.18     35.27    -27.09     20.00
   30.9624     34.48     35.21    -27.74     20.00
   30.9726     34.90     35.16    -27.26     20.00
   30.9828     34.40     35.10    -27.71     20.00
   30.9929     33.67     35.05    -28.38     20.00
   31.0031     34.20     34.99    -27.79     20.00
   31.0133     34.55     34.93    -27.39     20.00
   31.0234     32.77     34.88    -29.11     20.00
   31.0336     34.09     34.82    -27.74     20.00
   31.0437     34.41     34.77    -27.36     20.00
   31.0539     33.12     34.72    -28.60     20.00
   31.0641     33.57     34.66    -28.10     20.00
   31.0742     33.39     34.61    -28.22     20.00
   31.0844     33.20     34.56    -28.36     20.00
   31.0946     33.76     34.50    -27.75     20.00
   31.1047     33.35     34.45    -28.10     20.00
   31.1149     32.99     34.40    -28.41     20.00
   31.1251     33.97     34.35    -27.38     20.00
   31.1352     33.90     34.29    -27.40     20.00
   31.1454     32.87     34.24    -28.38     20.00
   31.1556     32.98     34.19    -28.22     20.00
   31.1657     33.21     34.14    -27.94     20.00
   31.1759     33.59     34.09    -27.51     20.00
   31.1860     33.52     34.04    -27.53     20.00
   31.1962     33.72     33.99    -27.28     20.00
   31.2064     32.61     33.94    -28.34     20.00
   31.2165     33.60     33.89    -27.30     20.00
   31.2267     33.82     33.85    -27.03     20.00
   31.2369     33.12     33.80    -27.68     20.00
   31.2470     32.91     33.75    -27.85     20.00
   31.2572     33.69     33.70    -27.02     20.00
   31.2674     32.88     33.66    -27.78     20.00
   31.2775     32.37     33.61    -28.25     20.00
   31.2877     32.73     33.56    -27.84     20.00
   31.2979     32.83     33.52    -27.69     20.00
   31.3080     32.76     33.47    -27.72     20.00
   31.3182     32.25     33.43    -28.18     20.00
   31.3284     32.64     33.39    -27.75     20.00
   31.3385     33.01     33.34    -27.34     20.00
   31.3487     33.85     33.30    -26.45     20.00
   31.3588     33.07     33.26    -27.19     20.00
   31.3690     31.99     33.21    -28.23     20.00
   31.3792     32.94     33.17    -27.23     20.00
   31.3893     33.05     33.13    -27.08     20.00
   31.3995     32.54     33.09    -27.55     20.00
   31.4097     32.76     33.05    -27.29     20.00
   31.4198     32.37     33.01    -27.64     20.00
   31.4300     32.59     32.97    -27.38     20.00
   31.4402     31.56     32.93    -28.37     20.00
   31.4503     32.89     32.89    -27.00     20.00
   31.4605     33.19     32.85    -26.66     20.00
   31.4707     31.82     32.81    -28.00     20.00
   31.4808     31.85     32.77    -27.93     20.00
   31.4910     32.50     32.74    -27.24     20.00
   31.5011     32.60     32.70    -27.10     20.00
   31.5113     32.59     32.66    -27.08     20.00
   31.5215     32.76     32.63    -26.87     20.00
   31.5316     32.66     32.59    -26.94     20.00
   31.5418     32.49     32.56    -27.07     20.00
   31.5520     32.83     32.52    -26.70     20.00
   31.5621     32.80     32.49    -26.69     20.00
   31.5723     31.43     32.45    -28.03     20.00
   31.5825     32.59     32.42    -26.84     20.00
   31.5926     32.62     32.39    -26.77     20.00
   31.6028     31.96     32.36    -27.40     20.00
   31.6130     32.21     32.32    -27.12     20.00
   31.6231     32.98     32.29    -26.32     20.00
   31.6333     32.31     32.26    -26.96     20.00
   31.6435     32.77     32.23    -26.47     20.00
   31.6536     32.32     32.20    -26.89     20.00
   31.6638     32.18     32.17    -27.00     20.00
   31.6739     32.17     32.14    -26.98     20.00
   31.6841     33.39     32.12    -25.73     20.00
   31.6943     32.20     32.09    -26.89     20.00
   31.7044     31.76     32.06    -27.30     20.00
   31.7146     31.98     32.03    -27.06     20.00
   31.7248     31.91     32.01    -27.10     20.00
   31.7349     32.09     31.98    -26.89     20.00
   31.7451     32.69     31.95    -26.27     20.00
   31.7553     31.75     31.93    -27.18     20.00
   31.7654     31.53     31.90    -27.38     20.00
   31.7756     32.32     31.88    -26.56     20.00
   31.7858     32.12     31.86    -26.74     20.00
   31.7959     32.18     31.83    -26.66     20.00
   31.8061     31.68     31.81    -27.13     20.00
   31.8162     32.35     31.79    -26.44     20.00
   31.8264     31.73     31.76    -27.04     20.00
   31.8366     31.71     31.74    -27.04     20.00
   31.8467     32.21     31.72    -26.52     20.00
   31.8569     31.80     31.70    -26.90     20.00
   31.8671     32.13     31.68    -26.55     20.00
   31.8772     32.05     31.66    -26.61     20.00
   31.8874     32.26     31.64    -26.39     20.00
   31.8976     32.04     31.62    -26.59     20.00
   31.9077     32.34     31.60    -26.27     20.00
   31.9179     32.49     31.59    -26.10     20.00
   31.9281     32.20     31.57    -26.37     20.00
   31.9382     32.52     31.55    -26.03     20.00
   31.9484     31.36     31.53    -27.18     20.00
   31.9586     32.56     31.52    -25.96     20.00
   31.9687     32.25     31.50    -26.26     20.00
   31.9789     32.52     31.49    -25.97     20.00
   31.9890     31.73     31.47    -26.75     20.00
   31.9992     32.60     31.46    -25.86     20.00
   32.0094     32.46     31.44    -25.99     20.00
   32.0195     31.79     31.43    -26.64     20.00
   32.0297     32.29     31.42    -26.13     20.00
   32.0399     32.36     31.40    -26.05     20.00
   32.0500     33.49     31.39    -24.90     20.00
   32.0602     31.71     31.38    -26.67     20.00
   32.0704     32.01     31.37    -26.36     20.00
   32.0805     32.97     31.36    -25.39     20.00
   32.0907     32.14     31.34    -26.21     20.00
   32.1009     32.90     31.33    -25.44     20.00
   32.1110     33.34     31.32    -24.99     20.00
   32.1212     32.72     31.31    -25.60     20.00
   32.1313     32.79     31.30    -25.52     20.00
   32.1415     33.77     31.30    -24.53     20.00
   32.1517     32.94     31.29    -25.35     20.00
   32.1618     32.62     31.28    -25.66     20.00
   32.1720     31.69     31.27    -26.59     20.00
   32.1822     32.79     31.26    -25.48     20.00
   32.1923     34.28     31.26    -23.98     20.00
   32.2025     33.16     31.25    -25.09     20.00
   32.2127     31.86     31.24    -26.39     20.00
   32.2228     32.87     31.24    -25.37     20.00
   32.2330     33.03     31.23    -25.21     20.00
   32.2432     32.96     31.23    -25.27     20.00
   32.2533     32.50     31.22    -25.73     20.00
   32.2635     33.24     31.22    -24.98     20.00
   32.2737     32.98     31.21    -25.24     20.00
   32.2838     32.61     31.21    -25.60     20.00
   32.2940     33.35     31.21    -24.86     20.00
   32.3041     33.01     31.20    -25.20     20.00
   32.3143     33.02     31.20    -25.18     20.00
   32.3245     33.12     31.20    -25.08     20.00
   32.3346     33.27     31.19    -24.93     20.00
   32.3448     33.09     31.19    -25.11     20.00
   32.3550     33.33     31.19    -24.87     20.00
   32.3651     33.13     31.19    -25.06     20.00
   32.3753     32.66     31.19    -25.53     20.00
   32.3855     33.35     31.19    -24.84     20.00
   32.3956     32.90     31.19    -25.29     20.00
   32.4058     32.90     31.19    -25.29     20.00
   32.4160     33.07     31.19    -25.12     20.00
   32.4261     32.65     31.19    -25.54     20.00
   32.4363     33.18     31.19    -25.01     20.00
   32.4464     32.91     31.19    -25.28     20.00
   32.4566     31.92     31.19    -26.27     20.00
   32.4668     32.38     31.19    -25.81     20.00
   32.4769     33.15     31.19    -25.05     20.00
   32.4871     32.95     31.19    -25.25     20.00
   32.4973     33.57     31.19    -24.63     20.00
   32.5074     32.71     31.20    -25.49     20.00
   32.5176     32.51     31.20    -25.69     20.00
   32.5278     32.99     31.20    -25.21     20.00
   32.5379     33.42     31.20    -24.79     20.00
   32.5481     32.94     31.21    -25.27     20.00
   32.5583     33.57     31.21    -24.64     20.00
   32.5684     33.52     31.21    -24.70     20.00
   32.5786     33.91     31.22    -24.31     20.00
   32.5888     31.61     31.22    -26.61     20.00
   32.5989     32.93     31.22    -25.30     20.00
   32.6091     32.04     31.23    -26.19     20.00
   32.6192     33.52     31.23    -24.71     20.00
   32.6294     32.88     31.23    -25.36     20.00
   32.6396     32.39     31.24    -25.85     20.00
   32.6497     32.27     31.24    -25.98     20.00
   32.6599     32.35     31.25    -25.90     20.00
   32.6701     32.37     31.25    -25.88     20.00
   32.6802     33.56     31.25    -24.70     20.00
   32.6904     33.10     31.26    -25.16     20.00
   32.7006     32.58     31.26    -25.69     20.00
   32.7107     33.47     31.27    -24.80     20.00
   32.7209     33.52     31.27    -24.76     20.00
   32.7311     32.09     31.28    -26.19     20.00
   32.7412     32.23     31.28    -26.06     20.00
   32.7514     32.95     31.29    -25.34     20.00
   32.7615     31.77     31.29    -26.53     20.00
   32.7717     32.01     31.30    -26.29     20.00
   32.7819     32.69     31.30    -25.61     20.00
   32.7920     32.50     31.31    -25.81     20.00
   32.8022     33.53     31.31    -24.78     20.00
   32.8124     32.55     31.31    -25.77     20.00
   32.8225     33.24     31.32    -25.08     20.00
   32.8327     32.59     31.32    -25.74     20.00
   32.8429     32.79     31.33    -25.54     20.00
   32.8530     32.47     31.33    -25.87     20.00
   32.8632     31.59     31.34    -26.75     20.00
   32.8734     32.58     31.34    -25.76     20.00
   32.8835     31.97     31.34    -26.38     20.00
   32.8937     32.46     31.35    -25.89     20.00
   32.9039     32.54     31.35    -25.82     20.00
   32.9140     32.41     31.36    -25.95     20.00
   32.9242     32.27     31.36    -26.09     20.00
   32.9343     33.27     31.36    -25.10     20.00
   32.9445     32.35     31.37    -26.02     20.00
   32.9547     32.10     31.37    -26.27     20.00
   32.9648     32.71     31.37    -25.67     20.00
   32.9750     33.10     31.37    -25.28     20.00
   32.9852     32.32     31.38    -26.06     20.00
   32.9953     33.14     31.38    -25.24     20.00
   33.0055     32.85     31.38    -25.54     20.00
   33.0157     31.77     31.38    -26.62     20.00
   33.0258     32.64     31.38    -25.75     20.00
   33.0360     32.96     31.39    -25.43     20.00
   33.0462     32.49     31.39    -25.90     20.00
   33.0563     33.20     31.39    -25.19     20.00
   33.0665     32.92     31.39    -25.47     20.00
   33.0766     32.80     31.39    -25.59     20.00
   33.0868     33.35     31.39    -25.04     20.00
   33.0970     32.15     31.39    -26.24     20.00
   33.1071     32.77     31.39    -25.62     20.00
   33.1173     33.29     31.39    -25.10     20.00
   33.1275     32.53     31.39    -25.86     20.00
   33.1376     31.93     31.38    -26.46     20.00
   33.1478     32.45     31.38    -25.94     20.00
   33.1580     32.21     31.38    -26.17     20.00
   33.1681     32.64     31.38    -25.74     20.00
   33.1783     32.79     31.37    -25.59     20.00
   33.1885     32.81     31.37    -25.56     20.00
   33.1986     32.70     31.37    -25.67     20.00
   33.2088     32.62     31.36    -25.75     20.00
   33.2189     32.22     31.36    -26.14     20.00
   33.2291     32.28     31.35    -26.08     20.00
   33.2393     33.45     31.35    -24.90     20.00
   33.2494     32.71     31.34    -25.64     20.00
   33.2596     33.21     31.34    -25.13     20.00
   33.2698     33.01     31.33    -25.32     20.00
   33.2799     32.71     31.32    -25.62     20.00
   33.2901     33.15     31.31    -25.17     20.00
   33.3003     33.52     31.31    -24.79     20.00
   33.3104     32.24     31.30    -26.06     20.00
   33.3206     32.67     31.29    -25.62     20.00
   33.3308     33.07     31.28    -25.21     20.00
   33.3409     32.88     31.27    -25.39     20.00
   33.3511     32.61     31.26    -25.65     20.00
   33.3613     32.23     31.25    -26.02     20.00
   33.3714     32.68     31.24    -25.56     20.00
   33.3816     33.11     31.23    -25.12     20.00
   33.3917     33.10     31.22    -25.12     20.00
   33.4019     32.41     31.20    -25.80     20.00
   33.4121     33.09     31.19    -25.10     20.00
   33.4222     32.93     31.18    -25.25     20.00
   33.4324     32.66     31.16    -25.51     20.00
   33.4426     33.32     31.15    -24.83     20.00
   33.4527     32.79     31.13    -25.35     20.00
   33.4629     32.41     31.12    -25.71     20.00
   33.4731     32.51     31.10    -25.60     20.00
   33.4832     32.33     31.09    -25.76     20.00
   33.4934     32.02     31.07    -26.05     20.00
   33.5036     33.04     31.05    -25.02     20.00
   33.5137     32.14     31.04    -25.90     20.00
   33.5239     32.09     31.02    -25.93     20.00
   33.5340     32.58     31.00    -25.42     20.00
   33.5442     31.55     30.98    -26.43     20.00
   33.5544     31.52     30.96    -26.45     20.00
   33.5645     31.63     30.94    -26.32     20.00
   33.5747     32.42     30.92    -25.51     20.00
   33.5849     31.64     30.90    -26.26     20.00
   33.5950     31.99     30.88    -25.89     20.00
   33.6052     32.48     30.86    -25.38     20.00
   33.6154     31.65     30.84    -26.19     20.00
   33.6255     31.64     30.81    -26.18     20.00
   33.6357     31.61     30.79    -26.19     20.00
   33.6459     30.88     30.77    -26.89     20.00
   33.6560     31.40     30.74    -26.35     20.00
   33.6662     30.83     30.72    -26.89     20.00
   33.6764     31.27     30.70    -26.43     20.00
   33.6865     31.08     30.67    -26.60     20.00
   33.6967     31.42     30.65    -26.23     20.00
   33.7068     30.98     30.62    -26.64     20.00
   33.7170     30.93     30.59    -26.67     20.00
   33.7272     30.59     30.57    -26.98     20.00
   33.7373     30.51     30.54    -27.04     20.00
   33.7475     30.32     30.51    -27.20     20.00
   33.7577     30.86     30.49    -26.63     20.00
   33.7678     30.63     30.46    -26.83     20.00
   33.7780     30.88     30.43    -26.56     20.00
   33.7882     30.30     30.40    -27.11     20.00
   33.7983     29.98     30.37    -27.40     20.00
   33.8085     29.72     30.35    -27.63     20.00
   33.8187     29.71     30.32    -27.61     20.00
   33.8288     29.85     30.29    -27.44     20.00
   33.8390     29.66     30.26    -27.60     20.00
   33.8491     29.38     30.23    -27.85     20.00
   33.8593     29.34     30.20    -27.86     20.00
   33.8695     29.36     30.17    -27.81     20.00
   33.8796     29.72     30.13    -27.42     20.00
   33.8898     29.48     30.10    -27.63     20.00
   33.9000     29.93     30.07    -27.15     20.00
   33.9101     29.20     30.04    -27.84     20.00
   33.9203     28.17     30.01    -28.84     20.00
   33.9305     29.26     29.98    -27.72     20.00
   33.9406     28.80     29.94    -28.15     20.00
   33.9508     29.14     29.91    -27.78     20.00
   33.9610     28.36     29.88    -28.52     20.00
   33.9711     27.41     29.85    -29.44     20.00
   33.9813     28.44     29.81    -28.38     20.00
   33.9915     28.60     29.78    -28.18     20.00
   34.0016     27.87     29.75    -28.88     20.00
   34.0118     27.40     29.71    -29.32     20.00
   34.0219     27.57     29.68    -29.11     20.00
   34.0321     28.32     29.64    -28.33     20.00
   34.0423     28.19     29.61    -28.42     20.00
   34.0524     27.91     29.58    -28.67     20.00
   34.0626     28.48     29.54    -28.07     20.00
   34.0728     27.49     29.51    -29.02     20.00
   34.0829     27.29     29.47    -29.19     20.00
   34.0931     26.45     29.44    -29.99     20.00
   34.1033     27.90     29.40    -28.51     20.00
   34.1134     27.01     29.37    -29.36     20.00
   34.1236     27.61     29.33    -28.73     20.00
   34.1338     27.68     29.30    -28.62     20.00
   34.1439     27.67     29.26    -28.60     20.00
   34.1541     26.41     29.23    -29.82     20.00
   34.1642     27.37     29.19    -28.83     20.00
   34.1744     27.11     29.16    -29.05     20.00
   34.1846     27.05     29.12    -29.08     20.00
   34.1947     27.12     29.09    -28.97     20.00
   34.2049     27.48     29.05    -28.58     20.00
   34.2151     26.83     29.02    -29.19     20.00
   34.2252     26.96     28.98    -29.03     20.00
   34.2354     27.04     28.95    -28.91     20.00
   34.2456     26.78     28.91    -29.14     20.00
   34.2557     27.10     28.88    -28.78     20.00
   34.2659     26.36     28.84    -29.48     20.00
   34.2761     27.29     28.80    -28.52     20.00
   34.2862     27.44     28.77    -28.33     20.00
   34.2964     26.32     28.73    -29.42     20.00
   34.3066     26.62     28.70    -29.08     20.00
   34.3167     26.30     28.66    -29.37     20.00
   34.3269     26.37     28.63    -29.26     20.00
   34.3370     26.36     28.59    -29.24     20.00
   34.3472     27.24     28.56    -28.32     20.00
   34.3574     26.77     28.52    -28.76     20.00
   34.3675     26.63     28.49    -28.86     20.00
   34.3777     26.49     28.45    -28.97     20.00
   34.3879     26.80     28.42    -28.62     20.00
   34.3980     26.34     28.38    -29.05     20.00
   34.4082     26.74     28.35    -28.61     20.00
   34.4184     26.41     28.31    -28.91     20.00
   34.4285     26.60     28.28    -28.68     20.00
   34.4387     26.51     28.24    -28.74     20.00
   34.4489     25.62     28.21    -29.59     20.00
   34.4590     26.48     28.17    -28.70     20.00
   34.4692     26.30     28.14    -28.84     20.00
   34.4793     26.51     28.10    -28.60     20.00
   34.4895     26.24     28.07    -28.83     20.00
   34.4997     26.27     28.04    -28.77     20.00
   34.5098     26.46     28.00    -28.55     20.00
   34.5200     26.71     27.97    -28.26     20.00
   34.5302     26.04     27.93    -28.90     20.00
   34.5403     26.12     27.90    -28.78     20.00
   34.5505     25.54     27.87    -29.33     20.00
   34.5607     26.27     27.83    -28.57     20.00
   34.5708     25.88     27.80    -28.92     20.00
   34.5810     25.32     27.77    -29.45     20.00
   34.5912     26.33     27.73    -28.41     20.00
   34.6013     25.80     27.70    -28.90     20.00
   34.6115     25.32     27.67    -29.35     20.00
   34.6217     25.07     27.63    -29.57     20.00
   34.6318     25.69     27.60    -28.92     20.00
   34.6420     25.30     27.57    -29.27     20.00
   34.6521     25.77     27.54    -28.77     20.00
   34.6623     26.22     27.50    -28.29     20.00
   34.6725     25.46     27.47    -29.02     20.00
   34.6826     26.45     27.44    -27.99     20.00
   34.6928     25.52     27.41    -28.89     20.00
   34.7030     25.84     27.38    -28.54     20.00
   34.7131     25.77     27.34    -28.58     20.00
   34.7233     25.87     27.31    -28.45     20.00
   34.7335     25.04     27.28    -29.25     20.00
   34.7436     25.68     27.25    -28.57     20.00
   34.7538     25.55     27.22    -28.67     20.00
   34.7640     25.74     27.19    -28.45     20.00
   34.7741     25.20     27.16    -28.96     20.00
   34.7843     25.65     27.13    -28.48     20.00
   34.7944     25.85     27.10    -28.25     20.00
   34.8046     25.68     27.07    -28.39     20.00
   34.8148     25.29     27.04    -28.75     20.00
   34.8249     25.16     27.01    -28.85     20.00
   34.8351     26.26     26.98    -27.72     20.00
   34.8453     24.79     26.95    -29.16     20.00
   34.8554     25.12     26.92    -28.80     20.00
   34.8656     25.32     26.89    -28.57     20.00
   34.8758     25.70     26.86    -28.16     20.00
   34.8859     25.59     26.83    -28.24     20.00
   34.8961     26.07     26.80    -27.74     20.00
   34.9063     25.53     26.77    -28.25     20.00
   34.9164     25.88     26.74    -27.87     20.00
   34.9266     25.38     26.72    -28.34     20.00
   34.9367     25.16     26.69    -28.53     20.00
   34.9469     24.74     26.66    -28.92     20.00
   34.9571     24.95     26.63    -28.69     20.00
   34.9672     24.99     26.60    -28.62     20.00
   34.9774     25.88     26.58    -27.70     20.00
   34.9876     24.85     26.55    -28.70     20.00
   34.9977     25.26     26.52    -28.27     20.00
   35.0079     25.16     26.50    -28.34     20.00
   35.0181     25.56     26.47    -27.91     20.00
   35.0282     25.41     26.44    -28.04     20.00
   35.0384     25.05     26.42    -28.37     20.00
   35.0486     25.20     26.39    -28.19     20.00
   35.0587     24.47     26.36    -28.90     20.00
   35.0689     24.82     26.34    -28.52     20.00
   35.0791     25.04     26.31    -28.28     20.00
   35.0892     24.85     26.29    -28.44     20.00
   35.0994     25.37     26.26    -27.89     20.00
   35.1095     25.75     26.24    -27.49     20.00
   35.1197     25.71     26.21    -27.50     20.00
   35.1299     24.87     26.18    -28.32     20.00
   35.1400     25.14     26.16    -28.02     20.00
   35.1502     24.34     26.14    -28.80     20.00
   35.1604     25.11     26.11    -28.01     20.00
   35.1705     24.63     26.09    -28.46     20.00
   35.1807     24.46     26.06    -28.61     20.00
   35.1909     25.28     26.04    -27.76     20.00
   35.2010     25.32     26.02    -27.70     20.00
   35.2112     24.94     25.99    -28.06     20.00
   35.2214     24.95     25.97    -28.02     20.00
   35.2315     24.16     25.95    -28.79     20.00
   35.2417     24.92     25.92    -28.01     20.00
   35.2518     24.87     25.90    -28.03     20.00
   35.2620     24.54     25.88    -28.34     20.00
   35.2722     24.13     25.85    -28.73     20.00
   35.2823     25.52     25.83    -27.32     20.00
   35.2925     24.52     25.81    -28.29     20.00
   35.3027     25.08     25.79    -27.71     20.00
   35.3128     24.61     25.77    -28.16     20.00
   35.3230     25.23     25.74    -27.52     20.00
   35.3332     24.15     25.72    -28.58     20.00
   35.3433     24.90     25.70    -27.81     20.00
   35.3535     24.69     25.68    -27.99     20.00
   35.3637     23.87     25.66    -28.79     20.00
   35.3738     24.26     25.64    -28.38     20.00
   35.3840     24.82     25.62    -27.80     20.00
   35.3942     24.56     25.60    -28.04     20.00
   35.4043     23.66     25.58    -28.92     20.00
   35.4145     25.07     25.56    -27.49     20.00
   35.4246     24.71     25.54    -27.83     20.00
   35.4348     23.96     25.52    -28.56     20.00
   35.4450     24.32     25.50    -28.18     20.00
   35.4551     24.74     25.48    -27.74     20.00
   35.4653     24.84     25.46    -27.62     20.00
   35.4755     24.95     25.44    -27.49     20.00
   35.4856     24.95     25.42    -27.47     20.00
   35.4958     23.95     25.40    -28.45     20.00
   35.5060     24.20     25.38    -28.19     20.00
   35.5161     25.04     25.36    -27.33     20.00
   35.5263     24.70     25.34    -27.65     20.00
   35.5365     24.91     25.33    -27.42     20.00
   35.5466     23.89     25.31    -28.42     20.00
   35.5568     24.21     25.29    -28.08     20.00
   35.5669     24.68     25.27    -27.60     20.00
   35.5771     24.66     25.25    -27.60     20.00
   35.5873     23.53     25.24    -28.71     20.00
   35.5974     24.77     25.22    -27.45     20.00
   35.6076     24.44     25.20    -27.77     20.00
   35.6178     24.11     25.18    -28.08     20.00
   35.6279     24.13     25.17    -28.04     20.00
   35.6381     24.19     25.15    -27.96     20.00
   35.6483     24.49     25.13    -27.65     20.00
   35.6584     24.66     25.12    -27.46     20.00
   35.6686     24.06     25.10    -28.04     20.00
   35.6788     24.24     25.08    -27.85     20.00
   35.6889     24.14     25.07    -27.93     20.00
   35.6991     23.72     25.05    -28.34     20.00
   35.7093     24.32     25.04    -27.72     20.00
   35.7194     24.07     25.02    -27.95     20.00
   35.7296     23.32     25.00    -28.69     20.00
   35.7397     23.87     24.99    -28.12     20.00
   35.7499     24.13     24.97    -27.85     20.00
   35.7601     24.09     24.96    -27.87     20.00
   35.7702     24.17     24.94    -27.78     20.00
   35.7804     24.43     24.93    -27.50     20.00
   35.7906     24.99     24.91    -26.93     20.00
   35.8007     24.57     24.90    -27.33     20.00
   35.8109     23.62     24.88    -28.27     20.00
   35.8211     24.17     24.87    -27.70     20.00
   35.8312     25.01     24.85    -26.85     20.00
   35.8414     23.82     24.84    -28.02     20.00
   35.8516     24.77     24.83    -27.06     20.00
   35.8617     24.30     24.81    -27.52     20.00
   35.8719     24.29     24.80    -27.51     20.00
   35.8820     24.45     24.78    -27.34     20.00
   35.8922     23.76     24.77    -28.01     20.00
   35.9024     24.30     24.76    -27.46     20.00
   35.9125     23.82     24.74    -27.93     20.00
   35.9227     24.01     24.73    -27.72     20.00
   35.9329     23.79     24.72    -27.93     20.00
   35.9430     23.75     24.70    -27.96     20.00
   35.9532     23.68     24.69    -28.02     20.00
   35.9634     24.76     24.68    -26.92     20.00
   35.9735     24.23     24.67    -27.44     20.00
   35.9837     24.76     24.65    -26.90     20.00
   35.9939     23.55     24.64    -28.09     20.00
