 => TITLE: 
 => Data file name: C:\Users\stefano\Nextcloud2\projects\programming\python\xrd-winplotr\folder\G105\G105--5-40-0.01-1000ms.xy
 => Instrm        :    1
 => Lambda(1&2)   :   1.54060  1.54060
 => Numb.of.points:      2951
 => Numb.of.peaks :         8
    2Theta     Yobs     Ycalc  Yobs-Ycal    Backg    Bragg     Posr  Intensity   FWHM    Eta
    6.2627     23.20     26.25    -30.05     25.38   18.6493     -2.25     153.01  0.8852  0.0658
    6.2729     23.52     26.25    -29.74     25.38   20.4670     -2.25      79.15  1.4942  0.0658
    6.2830     22.90     26.26    -30.36     25.38   22.5041     -2.25     105.31  1.1424  0.0658
    6.2932     22.88     26.26    -30.38     25.38   28.5326     -2.25      43.21  1.2797  0.0658
    6.3034     23.27     26.26    -30.00     25.38   30.0386     -2.25      35.23  3.1277  0.0658
    6.3135     23.41     26.27    -29.86     25.38   33.4325     -2.25      16.87  2.6277  0.0658
    6.3237     23.15     26.27    -30.12     25.38   17.2072     -2.25      47.98  2.1468  0.0658
    6.3338     22.77     26.27    -30.51     25.38   19.9467     -2.25     754.00 10.2371  0.0658
    6.3440     23.09     26.28    -30.19     25.38
    6.3542     22.51     26.28    -30.77     25.38
    6.3643     23.23     26.28    -30.06     25.37
    6.3745     22.64     26.29    -30.65     25.37
    6.3847     22.98     26.29    -30.31     25.37
    6.3948     22.84     26.29    -30.46     25.37
    6.4050     22.65     26.30    -30.65     25.37
    6.4152     22.80     26.30    -30.50     25.37
    6.4253     23.94     26.30    -29.37     25.37
    6.4355     23.43     26.31    -29.88     25.37
    6.4457     23.02     26.31    -30.30     25.37
    6.4558     23.70     26.31    -29.62     25.37
    6.4660     23.43     26.32    -29.89     25.37
    6.4762     22.63     26.32    -30.70     25.37
    6.4863     23.33     26.33    -30.00     25.37
    6.4965     23.05     26.33    -30.28     25.37
    6.5066     22.87     26.33    -30.47     25.37
    6.5168     22.79     26.34    -30.55     25.37
    6.5270     23.82     26.34    -29.53     25.36
    6.5371     23.76     26.35    -29.59     25.36
    6.5473     23.54     26.35    -29.81     25.36
    6.5575     23.39     26.35    -29.97     25.36
    6.5676     23.80     26.36    -29.56     25.36
    6.5778     23.03     26.36    -30.34     25.36
    6.5880     23.87     26.37    -29.50     25.36
    6.5981     23.22     26.37    -30.15     25.36
    6.6083     23.48     26.37    -29.90     25.36
    6.6185     23.84     26.38    -29.54     25.36
    6.6286     23.38     26.38    -30.01     25.36
    6.6388     23.24     26.39    -30.15     25.36
    6.6489     23.71     26.39    -29.68     25.36
    6.6591     23.88     26.40    -29.52     25.36
    6.6693     23.00     26.40    -30.40     25.36
    6.6794     24.11     26.40    -29.30     25.36
    6.6896     23.65     26.41    -29.76     25.35
    6.6998     22.68     26.41    -30.74     25.35
    6.7099     22.91     26.42    -30.51     25.35
    6.7201     23.46     26.42    -29.97     25.35
    6.7303     23.48     26.43    -29.95     25.35
    6.7404     23.27     26.43    -30.16     25.35
    6.7506     23.54     26.43    -29.90     25.35
    6.7608     23.03     26.44    -30.41     25.35
    6.7709     23.73     26.44    -29.72     25.35
    6.7811     23.13     26.45    -30.32     25.35
    6.7913     23.28     26.45    -30.18     25.35
    6.8014     23.63     26.46    -29.83     25.35
    6.8116     24.28     26.46    -29.19     25.35
    6.8217     23.24     26.47    -30.23     25.35
    6.8319     23.87     26.47    -29.61     25.35
    6.8421     23.49     26.48    -29.99     25.35
    6.8522     23.79     26.48    -29.70     25.34
    6.8624     24.15     26.49    -29.34     25.34
    6.8726     23.26     26.49    -30.24     25.34
    6.8827     23.88     26.50    -29.62     25.34
    6.8929     24.59     26.50    -28.92     25.34
    6.9031     23.37     26.51    -30.14     25.34
    6.9132     23.35     26.51    -30.17     25.34
    6.9234     23.87     26.52    -29.65     25.34
    6.9336     23.44     26.52    -30.09     25.34
    6.9437     23.48     26.53    -30.05     25.34
    6.9539     23.59     26.53    -29.95     25.34
    6.9640     23.45     26.54    -30.09     25.34
    6.9742     22.50     26.54    -31.05     25.34
    6.9844     24.38     26.55    -29.17     25.34
    6.9945     22.95     26.55    -30.61     25.34
    7.0047     23.50     26.56    -30.06     25.34
    7.0149     23.16     26.56    -30.41     25.33
    7.0250     23.27     26.57    -30.30     25.33
    7.0352     23.70     26.57    -29.88     25.33
    7.0454     23.66     26.58    -29.92     25.33
    7.0555     23.55     26.59    -30.04     25.33
    7.0657     24.23     26.59    -29.37     25.33
    7.0759     25.36     26.60    -28.24     25.33
    7.0860     23.25     26.60    -30.36     25.33
    7.0962     23.80     26.61    -29.81     25.33
    7.1064     24.45     26.61    -29.17     25.33
    7.1165     23.24     26.62    -30.38     25.33
    7.1267     24.49     26.63    -29.14     25.33
    7.1368     24.66     26.63    -28.97     25.33
    7.1470     23.99     26.64    -29.65     25.33
    7.1572     23.86     26.64    -29.79     25.33
    7.1673     24.10     26.65    -29.55     25.32
    7.1775     23.55     26.65    -30.11     25.32
    7.1877     24.44     26.66    -29.22     25.32
    7.1978     24.10     26.67    -29.57     25.32
    7.2080     24.03     26.67    -29.65     25.32
    7.2182     24.36     26.68    -29.32     25.32
    7.2283     24.57     26.68    -29.12     25.32
    7.2385     23.82     26.69    -29.87     25.32
    7.2487     24.69     26.70    -29.01     25.32
    7.2588     24.53     26.70    -29.18     25.32
    7.2690     24.21     26.71    -29.50     25.32
    7.2791     24.91     26.72    -28.81     25.32
    7.2893     25.04     26.72    -28.69     25.32
    7.2995     24.63     26.73    -29.10     25.32
    7.3096     24.65     26.74    -29.09     25.32
    7.3198     25.01     26.74    -28.74     25.32
    7.3300     24.94     26.75    -28.81     25.31
    7.3401     23.83     26.75    -29.93     25.31
    7.3503     24.60     26.76    -29.17     25.31
    7.3605     24.88     26.77    -28.89     25.31
    7.3706     24.87     26.77    -28.91     25.31
    7.3808     24.69     26.78    -29.10     25.31
    7.3910     24.95     26.79    -28.84     25.31
    7.4011     25.41     26.79    -28.39     25.31
    7.4113     24.66     26.80    -29.15     25.31
    7.4215     24.64     26.81    -29.17     25.31
    7.4316     25.29     26.82    -28.53     25.31
    7.4418     25.22     26.82    -28.61     25.31
    7.4519     24.52     26.83    -29.31     25.31
    7.4621     25.15     26.84    -28.69     25.31
    7.4723     25.16     26.84    -28.69     25.31
    7.4824     24.93     26.85    -28.92     25.31
    7.4926     24.65     26.86    -29.21     25.30
    7.5028     24.61     26.87    -29.26     25.30
    7.5129     25.54     26.87    -28.34     25.30
    7.5231     25.29     26.88    -28.59     25.30
    7.5333     25.12     26.89    -28.77     25.30
    7.5434     24.56     26.89    -29.34     25.30
    7.5536     25.85     26.90    -28.06     25.30
    7.5638     25.66     26.91    -28.25     25.30
    7.5739     24.85     26.92    -29.07     25.30
    7.5841     25.57     26.92    -28.36     25.30
    7.5942     25.43     26.93    -28.51     25.30
    7.6044     25.64     26.94    -28.30     25.30
    7.6146     25.55     26.95    -28.40     25.30
    7.6247     25.34     26.96    -28.62     25.30
    7.6349     24.35     26.96    -29.62     25.30
    7.6451     25.09     26.97    -28.89     25.30
    7.6552     25.05     26.98    -28.93     25.29
    7.6654     24.79     26.99    -29.20     25.29
    7.6756     24.75     27.00    -29.25     25.29
    7.6857     25.65     27.00    -28.36     25.29
    7.6959     25.07     27.01    -28.95     25.29
    7.7061     25.16     27.02    -28.86     25.29
    7.7162     26.49     27.03    -27.54     25.29
    7.7264     25.37     27.04    -28.67     25.29
    7.7365     25.02     27.04    -29.03     25.29
    7.7467     25.18     27.05    -28.88     25.29
    7.7569     25.74     27.06    -28.33     25.29
    7.7670     25.16     27.07    -28.91     25.29
    7.7772     25.45     27.08    -28.63     25.29
    7.7874     25.51     27.09    -28.58     25.29
    7.7975     25.55     27.10    -28.55     25.29
    7.8077     25.52     27.10    -28.59     25.29
    7.8179     25.09     27.11    -29.03     25.28
    7.8280     25.51     27.12    -28.62     25.28
    7.8382     26.44     27.13    -27.69     25.28
    7.8484     25.41     27.14    -28.73     25.28
    7.8585     26.47     27.15    -27.68     25.28
    7.8687     25.90     27.16    -28.26     25.28
    7.8789     25.69     27.17    -28.48     25.28
    7.8890     26.78     27.17    -27.40     25.28
    7.8992     26.09     27.18    -28.10     25.28
    7.9093     26.09     27.19    -28.11     25.28
    7.9195     26.36     27.20    -27.85     25.28
    7.9297     26.36     27.21    -27.86     25.28
    7.9398     26.88     27.22    -27.34     25.28
    7.9500     26.32     27.23    -27.91     25.28
    7.9602     26.48     27.24    -27.76     25.28
    7.9703     25.93     27.25    -28.32     25.28
    7.9805     26.30     27.26    -27.96     25.27
    7.9907     25.84     27.27    -28.43     25.27
    8.0008     26.12     27.28    -28.16     25.27
    8.0110     26.52     27.29    -27.77     25.27
    8.0212     26.60     27.30    -27.70     25.27
    8.0313     25.73     27.31    -28.58     25.27
    8.0415     26.74     27.32    -27.58     25.27
    8.0516     26.90     27.33    -27.43     25.27
    8.0618     25.13     27.34    -29.21     25.27
    8.0720     26.23     27.35    -28.12     25.27
    8.0821     25.52     27.36    -28.84     25.27
    8.0923     25.65     27.37    -28.72     25.27
    8.1025     25.96     27.38    -28.42     25.27
    8.1126     26.51     27.39    -27.88     25.27
    8.1228     26.03     27.40    -28.37     25.27
    8.1330     26.23     27.41    -28.18     25.27
    8.1431     26.55     27.42    -27.87     25.26
    8.1533     25.74     27.43    -28.69     25.26
    8.1635     26.30     27.44    -28.14     25.26
    8.1736     25.69     27.45    -28.76     25.26
    8.1838     26.00     27.46    -28.46     25.26
    8.1940     27.26     27.47    -27.22     25.26
    8.2041     26.62     27.48    -27.87     25.26
    8.2143     26.59     27.49    -27.91     25.26
    8.2244     27.26     27.50    -27.25     25.26
    8.2346     25.96     27.51    -28.56     25.26
    8.2448     27.32     27.53    -27.21     25.26
    8.2549     26.95     27.54    -27.59     25.26
    8.2651     27.27     27.55    -27.28     25.26
    8.2753     27.96     27.56    -26.60     25.26
    8.2854     27.30     27.57    -27.27     25.26
    8.2956     27.48     27.58    -27.11     25.26
    8.3058     27.37     27.59    -27.23     25.25
    8.3159     27.07     27.60    -27.54     25.25
    8.3261     26.74     27.62    -27.88     25.25
    8.3363     27.36     27.63    -27.27     25.25
    8.3464     27.27     27.64    -27.37     25.25
    8.3566     26.74     27.65    -27.91     25.25
    8.3667     27.13     27.66    -27.54     25.25
    8.3769     28.13     27.67    -26.55     25.25
    8.3871     27.32     27.69    -27.37     25.25
    8.3972     26.96     27.70    -27.74     25.25
    8.4074     27.51     27.71    -27.20     25.25
    8.4176     26.94     27.72    -27.79     25.25
    8.4277     26.91     27.73    -27.83     25.25
    8.4379     27.88     27.75    -26.87     25.25
    8.4481     27.38     27.76    -27.38     25.25
    8.4582     27.31     27.77    -27.47     25.25
    8.4684     28.52     27.78    -26.27     25.24
    8.4786     27.26     27.80    -27.54     25.24
    8.4887     27.29     27.81    -27.52     25.24
    8.4989     27.54     27.82    -27.29     25.24
    8.5091     28.07     27.83    -26.77     25.24
    8.5192     27.34     27.85    -27.51     25.24
    8.5294     28.24     27.86    -26.62     25.24
    8.5395     28.29     27.87    -26.59     25.24
    8.5497     27.63     27.89    -27.26     25.24
    8.5599     28.18     27.90    -26.72     25.24
    8.5700     27.89     27.91    -27.03     25.24
    8.5802     27.93     27.92    -27.00     25.24
    8.5904     27.55     27.94    -27.39     25.24
    8.6005     27.93     27.95    -27.03     25.24
    8.6107     27.25     27.96    -27.72     25.24
    8.6209     27.66     27.98    -27.32     25.24
    8.6310     28.26     27.99    -26.74     25.23
    8.6412     28.07     28.01    -26.94     25.23
    8.6514     27.07     28.02    -27.95     25.23
    8.6615     28.23     28.03    -26.81     25.23
    8.6717     27.87     28.05    -27.18     25.23
    8.6818     27.38     28.06    -27.68     25.23
    8.6920     27.87     28.07    -27.21     25.23
    8.7022     27.47     28.09    -27.62     25.23
    8.7123     28.19     28.10    -26.92     25.23
    8.7225     28.10     28.12    -27.02     25.23
    8.7327     28.10     28.13    -27.03     25.23
    8.7428     28.32     28.14    -26.83     25.23
    8.7530     28.07     28.16    -27.09     25.23
    8.7632     28.62     28.17    -26.56     25.23
    8.7733     28.23     28.19    -26.96     25.23
    8.7835     28.46     28.20    -26.75     25.23
    8.7937     28.48     28.22    -26.74     25.22
    8.8038     28.30     28.23    -26.94     25.22
    8.8140     28.46     28.25    -26.79     25.22
    8.8242     28.48     28.26    -26.79     25.22
    8.8343     28.80     28.28    -26.48     25.22
    8.8445     29.07     28.29    -26.23     25.22
    8.8546     27.93     28.31    -27.38     25.22
    8.8648     28.39     28.32    -26.94     25.22
    8.8750     28.71     28.34    -26.63     25.22
    8.8851     28.16     28.35    -27.20     25.22
    8.8953     28.23     28.37    -27.14     25.22
    8.9055     27.50     28.38    -27.89     25.22
    8.9156     27.92     28.40    -27.48     25.22
    8.9258     28.44     28.42    -26.98     25.22
    8.9360     28.97     28.43    -26.46     25.22
    8.9461     28.98     28.45    -26.47     25.22
    8.9563     28.84     28.46    -26.63     25.21
    8.9665     29.21     28.48    -26.27     25.21
    8.9766     28.24     28.49    -27.26     25.21
    8.9868     29.11     28.51    -26.40     25.21
    8.9969     29.03     28.53    -26.50     25.21
    9.0071     29.50     28.54    -26.05     25.21
    9.0173     29.43     28.56    -26.13     25.21
    9.0274     28.84     28.58    -26.74     25.21
    9.0376     28.62     28.59    -26.98     25.21
    9.0478     29.41     28.61    -26.20     25.21
    9.0579     30.03     28.63    -25.60     25.21
    9.0681     28.56     28.64    -27.09     25.21
    9.0783     28.47     28.66    -27.19     25.21
    9.0884     29.79     28.68    -25.89     25.21
    9.0986     29.53     28.69    -26.17     25.21
    9.1088     29.78     28.71    -25.94     25.21
    9.1189     28.84     28.73    -26.89     25.20
    9.1291     29.20     28.75    -26.55     25.20
    9.1393     29.26     28.76    -26.51     25.20
    9.1494     29.21     28.78    -26.57     25.20
    9.1596     29.76     28.80    -26.04     25.20
    9.1697     29.89     28.82    -25.93     25.20
    9.1799     29.48     28.83    -26.36     25.20
    9.1901     28.59     28.85    -27.27     25.20
    9.2002     29.90     28.87    -25.97     25.20
    9.2104     30.08     28.89    -25.81     25.20
    9.2206     28.73     28.91    -27.18     25.20
    9.2307     29.84     28.92    -26.09     25.20
    9.2409     28.93     28.94    -27.02     25.20
    9.2511     28.31     28.96    -27.65     25.20
    9.2612     29.46     28.98    -26.52     25.20
    9.2714     29.58     29.00    -26.42     25.20
    9.2816     29.38     29.02    -26.64     25.19
    9.2917     29.79     29.03    -26.25     25.19
    9.3019     29.81     29.05    -26.25     25.19
    9.3120     29.90     29.07    -26.18     25.19
    9.3222     29.80     29.09    -26.30     25.19
    9.3324     30.21     29.11    -25.90     25.19
    9.3425     29.67     29.13    -26.46     25.19
    9.3527     30.17     29.15    -25.98     25.19
    9.3629     30.33     29.17    -25.84     25.19
    9.3730     29.83     29.19    -26.36     25.19
    9.3832     30.35     29.21    -25.86     25.19
    9.3934     29.89     29.23    -26.34     25.19
    9.4035     29.98     29.25    -26.27     25.19
    9.4137     30.16     29.27    -26.11     25.19
    9.4239     29.96     29.29    -26.33     25.19
    9.4340     29.94     29.31    -26.37     25.19
    9.4442     30.06     29.33    -26.27     25.18
    9.4544     30.59     29.35    -25.76     25.18
    9.4645     29.86     29.37    -26.51     25.18
    9.4747     29.01     29.39    -27.38     25.18
    9.4848     30.97     29.41    -25.44     25.18
    9.4950     30.65     29.43    -25.78     25.18
    9.5052     30.43     29.45    -26.02     25.18
    9.5153     30.34     29.47    -26.13     25.18
    9.5255     29.63     29.49    -26.86     25.18
    9.5357     30.04     29.51    -26.48     25.18
    9.5458     31.09     29.53    -25.45     25.18
    9.5560     30.41     29.55    -26.15     25.18
    9.5662     29.95     29.57    -26.63     25.18
    9.5763     31.29     29.60    -25.31     25.18
    9.5865     29.50     29.62    -27.12     25.18
    9.5967     29.48     29.64    -27.16     25.18
    9.6068     30.23     29.66    -26.43     25.17
    9.6170     30.16     29.68    -26.53     25.17
    9.6271     30.21     29.70    -26.50     25.17
    9.6373     30.63     29.73    -26.10     25.17
    9.6475     30.00     29.75    -26.75     25.17
    9.6576     30.46     29.77    -26.31     25.17
    9.6678     30.55     29.79    -26.25     25.17
    9.6780     30.24     29.82    -26.58     25.17
    9.6881     30.63     29.84    -26.21     25.17
    9.6983     30.20     29.86    -26.66     25.17
    9.7085     31.86     29.88    -25.03     25.17
    9.7186     30.43     29.91    -26.48     25.17
    9.7288     30.32     29.93    -26.61     25.17
    9.7390     30.07     29.95    -26.89     25.17
    9.7491     30.55     29.97    -26.43     25.17
    9.7593     31.02     30.00    -25.98     25.17
    9.7694     30.39     30.02    -26.63     25.16
    9.7796     31.27     30.04    -25.78     25.16
    9.7898     30.82     30.07    -26.25     25.16
    9.7999     30.80     30.09    -26.30     25.16
    9.8101     30.05     30.12    -27.07     25.16
    9.8203     30.42     30.14    -26.72     25.16
    9.8304     30.76     30.16    -26.41     25.16
    9.8406     30.62     30.19    -26.57     25.16
    9.8508     31.21     30.21    -26.01     25.16
    9.8609     30.97     30.24    -26.27     25.16
    9.8711     31.57     30.26    -25.69     25.16
    9.8813     32.09     30.28    -25.20     25.16
    9.8914     31.38     30.31    -25.93     25.16
    9.9016     31.27     30.33    -26.07     25.16
    9.9118     30.68     30.36    -26.68     25.16
    9.9219     31.32     30.38    -26.07     25.16
    9.9321     30.70     30.41    -26.71     25.15
    9.9422     31.31     30.43    -26.13     25.15
    9.9524     31.22     30.46    -26.24     25.15
    9.9626     32.29     30.48    -25.20     25.15
    9.9727     31.29     30.51    -26.22     25.15
    9.9829     31.50     30.53    -26.04     25.15
    9.9931     31.18     30.56    -26.38     25.15
   10.0032     30.86     30.59    -26.73     25.15
   10.0134     30.99     30.61    -26.63     25.15
   10.0236     31.99     30.64    -25.65     25.15
   10.0337     32.45     30.66    -25.22     25.15
   10.0439     30.82     30.69    -26.87     25.15
   10.0541     31.79     30.72    -25.93     25.15
   10.0642     31.60     30.74    -26.15     25.15
   10.0744     31.41     30.77    -26.36     25.15
   10.0845     31.35     30.80    -26.45     25.15
   10.0947     31.80     30.82    -26.03     25.14
   10.1049     32.27     30.85    -25.58     25.14
   10.1150     31.60     30.88    -26.28     25.14
   10.1252     32.03     30.90    -25.88     25.14
   10.1354     32.32     30.93    -25.62     25.14
   10.1455     32.04     30.96    -25.92     25.14
   10.1557     30.79     30.99    -27.20     25.14
   10.1659     31.92     31.01    -26.10     25.14
   10.1760     33.16     31.04    -24.89     25.14
   10.1862     32.05     31.07    -26.02     25.14
   10.1964     32.90     31.10    -25.20     25.14
   10.2065     32.18     31.13    -25.95     25.14
   10.2167     31.98     31.15    -26.18     25.14
   10.2269     32.79     31.18    -25.40     25.14
   10.2370     32.16     31.21    -26.05     25.14
   10.2472     32.29     31.24    -25.95     25.14
   10.2573     32.05     31.27    -26.22     25.13
   10.2675     33.07     31.30    -25.23     25.13
   10.2777     32.11     31.33    -26.22     25.13
   10.2878     32.77     31.35    -25.59     25.13
   10.2980     32.67     31.38    -25.72     25.13
   10.3082     32.46     31.41    -25.96     25.13
   10.3183     31.63     31.44    -26.82     25.13
   10.3285     32.35     31.47    -26.13     25.13
   10.3387     32.07     31.50    -26.44     25.13
   10.3488     32.00     31.53    -26.54     25.13
   10.3590     32.28     31.56    -26.29     25.13
   10.3692     32.80     31.59    -25.80     25.13
   10.3793     32.65     31.62    -25.98     25.13
   10.3895     32.08     31.65    -26.58     25.13
   10.3996     32.42     31.68    -26.27     25.13
   10.4098     32.20     31.71    -26.52     25.13
   10.4200     31.44     31.74    -27.31     25.12
   10.4301     32.05     31.77    -26.73     25.12
   10.4403     31.91     31.80    -26.90     25.12
   10.4505     31.70     31.84    -27.14     25.12
   10.4606     32.89     31.87    -25.98     25.12
   10.4708     33.10     31.90    -25.80     25.12
   10.4810     31.92     31.93    -27.01     25.12
   10.4911     32.48     31.96    -26.48     25.12
   10.5013     33.42     31.99    -25.58     25.12
   10.5115     33.02     32.02    -26.01     25.12
   10.5216     33.40     32.06    -25.66     25.12
   10.5318     33.27     32.09    -25.82     25.12
   10.5420     33.23     32.12    -25.89     25.12
   10.5521     33.22     32.15    -25.94     25.12
   10.5623     33.19     32.19    -26.00     25.12
   10.5724     33.42     32.22    -25.80     25.12
   10.5826     32.14     32.25    -27.11     25.11
   10.5928     33.18     32.28    -26.11     25.11
   10.6029     32.15     32.32    -27.17     25.11
   10.6131     32.99     32.35    -26.36     25.11
   10.6233     32.97     32.38    -26.42     25.11
   10.6334     31.87     32.42    -27.55     25.11
   10.6436     32.66     32.45    -26.79     25.11
   10.6538     33.16     32.48    -26.33     25.11
   10.6639     32.84     32.52    -26.68     25.11
   10.6741     33.76     32.55    -25.79     25.11
   10.6843     33.55     32.58    -26.04     25.11
   10.6944     34.71     32.62    -24.91     25.11
   10.7046     32.45     32.65    -27.21     25.11
   10.7147     32.99     32.69    -26.70     25.11
   10.7249     33.38     32.72    -26.35     25.11
   10.7351     32.88     32.76    -26.88     25.10
   10.7452     33.56     32.79    -26.23     25.10
   10.7554     33.63     32.83    -26.20     25.10
   10.7656     33.23     32.86    -26.63     25.10
   10.7757     33.70     32.90    -26.20     25.10
   10.7859     34.17     32.93    -25.77     25.10
   10.7961     32.98     32.97    -26.99     25.10
   10.8062     33.82     33.00    -26.19     25.10
   10.8164     33.24     33.04    -26.80     25.10
   10.8266     33.73     33.07    -26.35     25.10
   10.8367     33.90     33.11    -26.21     25.10
   10.8469     32.12     33.15    -28.03     25.10
   10.8571     33.73     33.18    -26.46     25.10
   10.8672     33.02     33.22    -27.20     25.10
   10.8774     34.77     33.26    -25.49     25.10
   10.8875     33.72     33.29    -26.58     25.10
   10.8977     34.59     33.33    -25.74     25.09
   10.9079     35.01     33.37    -25.36     25.09
   10.9180     33.70     33.40    -26.71     25.09
   10.9282     34.14     33.44    -26.30     25.09
   10.9384     34.09     33.48    -26.39     25.09
   10.9485     33.96     33.51    -26.56     25.09
   10.9587     34.52     33.55    -26.04     25.09
   10.9689     34.77     33.59    -25.82     25.09
   10.9790     33.55     33.63    -27.08     25.09
   10.9892     33.98     33.67    -26.69     25.09
   10.9994     34.01     33.70    -26.70     25.09
   11.0095     33.53     33.74    -27.22     25.09
   11.0197     34.20     33.78    -26.59     25.09
   11.0298     35.13     33.82    -25.69     25.09
   11.0400     34.57     33.86    -26.29     25.09
   11.0502     33.85     33.90    -27.05     25.09
   11.0603     34.99     33.94    -25.95     25.08
   11.0705     34.63     33.98    -26.35     25.08
   11.0807     33.90     34.02    -27.12     25.08
   11.0908     34.76     34.05    -26.30     25.08
   11.1010     34.30     34.09    -26.80     25.08
   11.1112     34.80     34.13    -26.34     25.08
   11.1213     34.25     34.17    -26.93     25.08
   11.1315     33.63     34.21    -27.59     25.08
   11.1417     34.98     34.25    -26.28     25.08
   11.1518     35.43     34.29    -25.87     25.08
   11.1620     34.46     34.34    -26.88     25.08
   11.1722     34.43     34.38    -26.95     25.08
   11.1823     34.30     34.42    -27.12     25.08
   11.1925     36.17     34.46    -25.29     25.08
   11.2026     35.14     34.50    -26.36     25.08
   11.2128     35.09     34.54    -26.45     25.08
   11.2230     34.58     34.58    -27.01     25.07
   11.2331     34.91     34.62    -26.72     25.07
   11.2433     34.93     34.66    -26.74     25.07
   11.2535     34.51     34.71    -27.20     25.07
   11.2636     34.41     34.75    -27.34     25.07
   11.2738     35.01     34.79    -26.78     25.07
   11.2840     33.82     34.83    -28.02     25.07
   11.2941     35.23     34.88    -26.65     25.07
   11.3043     35.55     34.92    -26.37     25.07
   11.3145     34.27     34.96    -27.69     25.07
   11.3246     35.90     35.00    -26.11     25.07
   11.3348     35.14     35.05    -26.91     25.07
   11.3449     36.02     35.09    -26.07     25.07
   11.3551     36.07     35.13    -26.07     25.07
   11.3653     35.73     35.18    -26.45     25.07
   11.3754     35.77     35.22    -26.45     25.07
   11.3856     35.71     35.26    -26.56     25.06
   11.3958     36.60     35.31    -25.71     25.06
   11.4059     35.30     35.35    -27.06     25.06
   11.4161     35.38     35.40    -27.02     25.06
   11.4263     35.85     35.44    -26.59     25.06
   11.4364     34.99     35.48    -27.50     25.06
   11.4466     35.45     35.53    -27.08     25.06
   11.4568     35.79     35.57    -26.79     25.06
   11.4669     36.60     35.62    -26.02     25.06
   11.4771     35.62     35.66    -27.05     25.06
   11.4873     35.86     35.71    -26.85     25.06
   11.4974     35.38     35.76    -27.38     25.06
   11.5076     35.77     35.80    -27.04     25.06
   11.5177     36.01     35.85    -26.84     25.06
   11.5279     35.52     35.89    -27.38     25.06
   11.5381     35.59     35.94    -27.35     25.06
   11.5482     35.86     35.98    -27.13     25.05
   11.5584     35.51     36.03    -27.53     25.05
   11.5686     36.65     36.08    -26.43     25.05
   11.5787     36.24     36.12    -26.89     25.05
   11.5889     36.02     36.17    -27.16     25.05
   11.5991     36.25     36.22    -26.97     25.05
   11.6092     36.31     36.27    -26.96     25.05
   11.6194     36.82     36.31    -26.50     25.05
   11.6296     36.73     36.36    -26.63     25.05
   11.6397     36.34     36.41    -27.07     25.05
   11.6499     36.31     36.46    -27.15     25.05
   11.6600     36.93     36.50    -26.58     25.05
   11.6702     36.45     36.55    -27.11     25.05
   11.6804     36.32     36.60    -27.28     25.05
   11.6905     37.37     36.65    -26.28     25.05
   11.7007     36.32     36.70    -27.38     25.05
   11.7109     37.22     36.75    -26.53     25.04
   11.7210     36.51     36.79    -27.29     25.04
   11.7312     37.05     36.84    -26.80     25.04
   11.7414     37.56     36.89    -26.34     25.04
   11.7515     36.11     36.94    -27.84     25.04
   11.7617     37.91     36.99    -26.08     25.04
   11.7719     37.30     37.04    -26.74     25.04
   11.7820     36.63     37.09    -27.46     25.04
   11.7922     36.71     37.14    -27.43     25.04
   11.8023     36.86     37.19    -27.33     25.04
   11.8125     36.70     37.24    -27.54     25.04
   11.8227     37.46     37.29    -26.84     25.04
   11.8328     36.47     37.34    -27.88     25.04
   11.8430     36.20     37.39    -28.20     25.04
   11.8532     38.15     37.44    -26.30     25.04
   11.8633     37.72     37.49    -26.78     25.04
   11.8735     37.02     37.55    -27.53     25.03
   11.8837     37.53     37.60    -27.07     25.03
   11.8938     37.80     37.65    -26.85     25.03
   11.9040     37.82     37.70    -26.88     25.03
   11.9142     37.74     37.75    -27.02     25.03
   11.9243     37.00     37.80    -27.81     25.03
   11.9345     38.48     37.86    -26.38     25.03
   11.9447     38.10     37.91    -26.81     25.03
   11.9548     37.36     37.96    -27.60     25.03
   11.9650     37.36     38.01    -27.66     25.03
   11.9751     37.94     38.07    -27.13     25.03
   11.9853     37.50     38.12    -27.62     25.03
   11.9955     38.16     38.17    -27.02     25.03
   12.0056     37.69     38.23    -27.54     25.03
   12.0158     39.04     38.28    -26.24     25.03
   12.0260     38.30     38.33    -27.04     25.03
   12.0361     39.24     38.39    -26.15     25.02
   12.0463     38.35     38.44    -27.09     25.02
   12.0565     38.38     38.50    -27.12     25.02
   12.0666     38.02     38.55    -27.53     25.02
   12.0768     38.71     38.60    -26.90     25.02
   12.0870     38.13     38.66    -27.53     25.02
   12.0971     38.82     38.71    -26.90     25.02
   12.1073     38.48     38.77    -27.29     25.02
   12.1174     37.73     38.82    -28.10     25.02
   12.1276     38.36     38.88    -27.52     25.02
   12.1378     38.05     38.93    -27.89     25.02
   12.1479     37.64     38.99    -28.35     25.02
   12.1581     39.02     39.04    -27.03     25.02
   12.1683     38.48     39.10    -27.62     25.02
   12.1784     38.27     39.16    -27.89     25.02
   12.1886     39.02     39.21    -27.20     25.02
   12.1988     38.98     39.27    -27.29     25.01
   12.2089     39.84     39.33    -26.49     25.01
   12.2191     39.43     39.38    -26.96     25.01
   12.2293     39.67     39.44    -26.77     25.01
   12.2394     39.17     39.50    -27.33     25.01
   12.2496     38.62     39.55    -27.94     25.01
   12.2598     40.10     39.61    -26.52     25.01
   12.2699     39.40     39.67    -27.27     25.01
   12.2801     40.04     39.73    -26.69     25.01
   12.2902     39.29     39.78    -27.50     25.01
   12.3004     38.60     39.84    -28.25     25.01
   12.3106     40.49     39.90    -26.41     25.01
   12.3207     38.87     39.96    -28.09     25.01
   12.3309     39.76     40.02    -27.26     25.01
   12.3411     39.36     40.08    -27.72     25.01
   12.3512     39.04     40.13    -28.10     25.01
   12.3614     39.63     40.19    -27.57     25.00
   12.3716     39.30     40.25    -27.96     25.00
   12.3817     40.04     40.31    -27.28     25.00
   12.3919     39.55     40.37    -27.83     25.00
   12.4021     40.97     40.43    -26.47     25.00
   12.4122     40.16     40.49    -27.33     25.00
   12.4224     39.75     40.55    -27.80     25.00
   12.4325     40.18     40.61    -27.43     25.00
   12.4427     41.15     40.67    -26.53     25.00
   12.4529     41.07     40.73    -26.67     25.00
   12.4630     39.45     40.79    -28.35     25.00
   12.4732     39.93     40.85    -27.93     25.00
   12.4834     40.85     40.91    -27.07     25.00
   12.4935     40.98     40.97    -27.00     25.00
   12.5037     40.15     41.04    -27.89     25.00
   12.5139     40.12     41.10    -27.98     25.00
   12.5240     40.96     41.16    -27.20     24.99
   12.5342     40.69     41.22    -27.54     24.99
   12.5444     40.48     41.28    -27.81     24.99
   12.5545     41.07     41.35    -27.28     24.99
   12.5647     40.79     41.41    -27.62     24.99
   12.5749     40.19     41.47    -28.28     24.99
   12.5850     41.60     41.53    -26.94     24.99
   12.5952     40.51     41.60    -28.09     24.99
   12.6053     40.87     41.66    -27.79     24.99
   12.6155     40.94     41.72    -27.79     24.99
   12.6257     40.39     41.78    -28.40     24.99
   12.6358     41.52     41.85    -27.33     24.99
   12.6460     41.98     41.91    -26.94     24.99
   12.6562     41.00     41.98    -27.98     24.99
   12.6663     41.54     42.04    -27.50     24.99
   12.6765     41.68     42.10    -27.43     24.99
   12.6867     41.80     42.17    -27.37     24.98
   12.6968     41.07     42.23    -28.17     24.98
   12.7070     41.24     42.30    -28.06     24.98
   12.7172     41.66     42.36    -27.71     24.98
   12.7273     41.95     42.43    -27.48     24.98
   12.7375     42.10     42.49    -27.40     24.98
   12.7476     42.63     42.56    -26.93     24.98
   12.7578     41.98     42.62    -27.65     24.98
   12.7680     42.01     42.69    -27.68     24.98
   12.7781     43.15     42.75    -26.61     24.98
   12.7883     41.85     42.82    -27.97     24.98
   12.7985     42.52     42.89    -27.37     24.98
   12.8086     42.68     42.95    -27.27     24.98
   12.8188     42.20     43.02    -27.82     24.98
   12.8290     42.71     43.08    -27.38     24.98
   12.8391     42.63     43.15    -27.52     24.98
   12.8493     41.99     43.22    -28.23     24.97
   12.8595     42.01     43.28    -28.28     24.97
   12.8696     42.63     43.35    -27.73     24.97
   12.8798     41.35     43.42    -29.07     24.97
   12.8900     41.88     43.49    -28.61     24.97
   12.9001     41.97     43.55    -28.59     24.97
   12.9103     43.87     43.62    -26.76     24.97
   12.9204     42.97     43.69    -27.72     24.97
   12.9306     42.52     43.76    -28.24     24.97
   12.9408     43.70     43.83    -27.13     24.97
   12.9509     43.65     43.89    -27.25     24.97
   12.9611     43.18     43.96    -27.79     24.97
   12.9713     43.12     44.03    -27.92     24.97
   12.9814     44.33     44.10    -26.78     24.97
   12.9916     43.73     44.17    -27.44     24.97
   13.0018     43.54     44.24    -27.70     24.97
   13.0119     43.13     44.31    -28.18     24.96
   13.0221     43.54     44.38    -27.84     24.96
   13.0323     42.82     44.45    -28.63     24.96
   13.0424     43.85     44.52    -27.67     24.96
   13.0526     43.60     44.59    -27.99     24.96
   13.0627     43.71     44.66    -27.95     24.96
   13.0729     43.55     44.73    -28.18     24.96
   13.0831     44.32     44.80    -27.48     24.96
   13.0932     43.92     44.87    -27.95     24.96
   13.1034     45.31     44.94    -26.64     24.96
   13.1136     44.27     45.01    -27.75     24.96
   13.1237     43.17     45.08    -28.92     24.96
   13.1339     44.80     45.16    -27.36     24.96
   13.1441     44.23     45.23    -28.00     24.96
   13.1542     45.19     45.30    -27.11     24.96
   13.1644     44.52     45.37    -27.85     24.96
   13.1746     43.92     45.44    -28.53     24.95
   13.1847     45.57     45.51    -26.95     24.95
   13.1949     44.65     45.59    -27.94     24.95
   13.2051     44.42     45.66    -28.24     24.95
   13.2152     46.01     45.73    -26.73     24.95
   13.2254     45.31     45.81    -27.50     24.95
   13.2355     44.48     45.88    -28.40     24.95
   13.2457     45.09     45.95    -27.87     24.95
   13.2559     45.71     46.02    -27.32     24.95
   13.2660     45.52     46.10    -27.58     24.95
   13.2762     45.92     46.17    -27.26     24.95
   13.2864     45.18     46.25    -28.07     24.95
   13.2965     46.52     46.32    -26.80     24.95
   13.3067     44.73     46.39    -28.67     24.95
   13.3169     45.15     46.47    -28.32     24.95
   13.3270     45.04     46.54    -28.51     24.95
   13.3372     46.24     46.62    -27.38     24.94
   13.3474     46.26     46.69    -27.44     24.94
   13.3575     46.83     46.77    -26.94     24.94
   13.3677     46.16     46.84    -27.69     24.94
   13.3778     46.68     46.92    -27.24     24.94
   13.3880     45.78     46.99    -28.22     24.94
   13.3982     45.18     47.07    -28.89     24.94
   13.4083     46.65     47.14    -27.50     24.94
   13.4185     47.28     47.22    -26.94     24.94
   13.4287     45.74     47.30    -28.56     24.94
   13.4388     46.91     47.37    -27.47     24.94
   13.4490     47.51     47.45    -26.94     24.94
   13.4592     46.79     47.52    -27.74     24.94
   13.4693     46.73     47.60    -27.87     24.94
   13.4795     47.18     47.68    -27.50     24.94
   13.4897     46.80     47.76    -27.96     24.94
   13.4998     47.32     47.83    -27.52     24.93
   13.5100     47.15     47.91    -27.76     24.93
   13.5201     47.48     47.99    -27.51     24.93
   13.5303     48.02     48.06    -27.05     24.93
   13.5405     48.91     48.14    -26.24     24.93
   13.5506     48.40     48.22    -26.82     24.93
   13.5608     47.64     48.30    -27.66     24.93
   13.5710     46.73     48.38    -28.65     24.93
   13.5811     47.24     48.45    -28.22     24.93
   13.5913     47.21     48.53    -28.33     24.93
   13.6015     47.35     48.61    -28.27     24.93
   13.6116     49.34     48.69    -26.36     24.93
   13.6218     48.50     48.77    -27.27     24.93
   13.6320     47.71     48.85    -28.14     24.93
   13.6421     48.26     48.93    -27.67     24.93
   13.6523     47.23     49.01    -28.78     24.93
   13.6625     48.64     49.09    -27.45     24.92
   13.6726     48.85     49.17    -27.32     24.92
   13.6828     48.10     49.25    -28.15     24.92
   13.6929     47.57     49.33    -28.76     24.92
   13.7031     49.35     49.41    -27.06     24.92
   13.7133     49.62     49.49    -26.87     24.92
   13.7234     48.95     49.57    -27.62     24.92
   13.7336     49.82     49.65    -26.84     24.92
   13.7438     49.37     49.73    -27.37     24.92
   13.7539     48.51     49.81    -28.31     24.92
   13.7641     49.81     49.89    -27.09     24.92
   13.7743     48.74     49.98    -28.24     24.92
   13.7844     49.31     50.06    -27.75     24.92
   13.7946     49.27     50.14    -27.87     24.92
   13.8048     49.27     50.22    -27.96     24.92
   13.8149     49.13     50.30    -28.18     24.92
   13.8251     49.57     50.39    -27.82     24.91
   13.8352     50.51     50.47    -26.96     24.91
   13.8454     50.18     50.55    -27.38     24.91
   13.8556     49.60     50.64    -28.04     24.91
   13.8657     50.20     50.72    -27.52     24.91
   13.8759     49.83     50.80    -27.98     24.91
   13.8861     51.10     50.89    -26.79     24.91
   13.8962     50.46     50.97    -27.51     24.91
   13.9064     51.31     51.05    -26.75     24.91
   13.9166     51.69     51.14    -26.45     24.91
   13.9267     50.33     51.22    -27.89     24.91
   13.9369     50.12     51.31    -28.19     24.91
   13.9471     50.95     51.39    -27.44     24.91
   13.9572     50.49     51.47    -27.99     24.91
   13.9674     51.71     51.56    -26.85     24.91
   13.9776     50.93     51.64    -27.72     24.91
   13.9877     51.35     51.73    -27.38     24.90
   13.9979     51.88     51.82    -26.94     24.90
   14.0080     51.63     51.90    -27.27     24.90
   14.0182     51.71     51.99    -27.28     24.90
   14.0284     51.89     52.07    -27.19     24.90
   14.0385     52.09     52.16    -27.07     24.90
   14.0487     52.20     52.25    -27.05     24.90
   14.0589     52.15     52.33    -27.19     24.90
   14.0690     52.04     52.42    -27.38     24.90
   14.0792     50.68     52.51    -28.83     24.90
   14.0894     52.00     52.59    -27.60     24.90
   14.0995     52.82     52.68    -26.86     24.90
   14.1097     52.83     52.77    -26.94     24.90
   14.1199     51.85     52.86    -28.01     24.90
   14.1300     52.85     52.94    -27.10     24.90
   14.1402     52.57     53.03    -27.47     24.90
   14.1503     52.10     53.12    -28.02     24.89
   14.1605     52.85     53.21    -27.36     24.89
   14.1707     53.48     53.30    -26.82     24.89
   14.1808     53.43     53.39    -26.96     24.89
   14.1910     53.65     53.48    -26.83     24.89
   14.2012     53.79     53.57    -26.78     24.89
   14.2113     54.18     53.66    -26.48     24.89
   14.2215     53.34     53.75    -27.41     24.89
   14.2317     53.74     53.84    -27.10     24.89
   14.2418     53.65     53.93    -27.28     24.89
   14.2520     55.52     54.02    -25.50     24.89
   14.2622     53.54     54.11    -27.57     24.89
   14.2723     55.15     54.20    -26.05     24.89
   14.2825     55.43     54.29    -25.87     24.89
   14.2927     54.51     54.38    -26.88     24.89
   14.3028     54.79     54.48    -26.69     24.88
   14.3130     54.81     54.57    -26.76     24.88
   14.3231     54.89     54.66    -26.77     24.88
   14.3333     55.60     54.75    -26.16     24.88
   14.3435     55.87     54.85    -25.98     24.88
   14.3536     54.85     54.94    -27.09     24.88
   14.3638     54.70     55.03    -27.34     24.88
   14.3740     55.37     55.13    -26.76     24.88
   14.3841     56.10     55.22    -26.13     24.88
   14.3943     56.27     55.32    -26.05     24.88
   14.4045     54.43     55.41    -27.99     24.88
   14.4146     56.18     55.51    -26.33     24.88
   14.4248     55.93     55.60    -26.68     24.88
   14.4350     55.75     55.70    -26.95     24.88
   14.4451     57.34     55.79    -25.46     24.88
   14.4553     56.12     55.89    -26.77     24.88
   14.4654     55.37     55.99    -27.62     24.87
   14.4756     56.62     56.08    -26.47     24.87
   14.4858     56.59     56.18    -26.59     24.87
   14.4959     57.07     56.28    -26.21     24.87
   14.5061     57.52     56.38    -25.86     24.87
   14.5163     56.01     56.47    -27.47     24.87
   14.5264     56.84     56.57    -26.74     24.87
   14.5366     57.26     56.67    -26.42     24.87
   14.5468     56.07     56.77    -27.71     24.87
   14.5569     57.87     56.87    -26.00     24.87
   14.5671     56.44     56.97    -27.53     24.87
   14.5773     57.30     57.07    -26.78     24.87
   14.5874     58.52     57.17    -25.66     24.87
   14.5976     57.74     57.27    -26.54     24.87
   14.6078     57.56     57.38    -26.82     24.87
   14.6179     59.25     57.48    -25.23     24.87
   14.6281     58.21     57.58    -26.37     24.86
   14.6382     57.90     57.68    -26.79     24.86
   14.6484     59.05     57.79    -25.74     24.86
   14.6586     58.30     57.89    -26.59     24.86
   14.6687     58.87     57.99    -26.13     24.86
   14.6789     60.60     58.10    -24.50     24.86
   14.6891     59.02     58.20    -26.19     24.86
   14.6992     59.07     58.31    -26.24     24.86
   14.7094     59.95     58.41    -25.47     24.86
   14.7196     59.43     58.52    -26.10     24.86
   14.7297     59.34     58.63    -26.29     24.86
   14.7399     60.55     58.74    -25.19     24.86
   14.7501     60.18     58.84    -25.67     24.86
   14.7602     59.87     58.95    -26.09     24.86
   14.7704     61.69     59.06    -24.37     24.86
   14.7805     60.97     59.17    -25.20     24.86
   14.7907     60.30     59.28    -25.98     24.85
   14.8009     60.99     59.39    -25.40     24.85
   14.8110     60.79     59.50    -25.71     24.85
   14.8212     59.84     59.61    -26.78     24.85
   14.8314     60.89     59.73    -25.84     24.85
   14.8415     60.57     59.84    -26.27     24.85
   14.8517     59.96     59.95    -26.99     24.85
   14.8619     62.07     60.07    -25.00     24.85
   14.8720     61.34     60.18    -25.84     24.85
   14.8822     61.21     60.29    -26.09     24.85
   14.8924     62.13     60.41    -25.28     24.85
   14.9025     63.16     60.53    -24.37     24.85
   14.9127     61.34     60.64    -26.31     24.85
   14.9229     63.04     60.76    -24.72     24.85
   14.9330     61.34     60.88    -26.54     24.85
   14.9432     62.52     61.00    -25.48     24.85
   14.9533     63.30     61.12    -24.82     24.84
   14.9635     62.80     61.24    -25.44     24.84
   14.9737     62.27     61.36    -26.09     24.84
   14.9838     63.13     61.48    -25.35     24.84
   14.9940     63.25     61.60    -25.35     24.84
   15.0042     62.84     61.72    -25.89     24.84
   15.0143     63.32     61.85    -25.53     24.84
   15.0245     62.72     61.97    -26.26     24.84
   15.0347     63.59     62.10    -25.51     24.84
   15.0448     63.82     62.22    -25.41     24.84
   15.0550     63.88     62.35    -25.47     24.84
   15.0652     63.82     62.48    -25.66     24.84
   15.0753     63.30     62.60    -26.31     24.84
   15.0855     64.70     62.73    -25.04     24.84
   15.0956     64.76     62.86    -25.11     24.84
   15.1058     64.16     62.99    -25.84     24.84
   15.1160     64.77     63.13    -25.36     24.83
   15.1261     64.99     63.26    -25.27     24.83
   15.1363     64.93     63.39    -25.46     24.83
   15.1465     64.99     63.52    -25.54     24.83
   15.1566     65.67     63.66    -24.99     24.83
   15.1668     65.37     63.79    -25.43     24.83
   15.1770     65.55     63.93    -25.38     24.83
   15.1871     65.13     64.07    -25.94     24.83
   15.1973     65.07     64.21    -26.14     24.83
   15.2075     65.91     64.34    -25.44     24.83
   15.2176     65.93     64.48    -25.56     24.83
   15.2278     66.17     64.63    -25.46     24.83
   15.2380     66.90     64.77    -24.87     24.83
   15.2481     66.91     64.91    -25.00     24.83
   15.2583     66.52     65.05    -25.54     24.83
   15.2684     66.38     65.20    -25.82     24.83
   15.2786     65.35     65.34    -27.00     24.82
   15.2888     67.45     65.49    -25.04     24.82
   15.2989     67.38     65.64    -25.26     24.82
   15.3091     67.15     65.79    -25.64     24.82
   15.3193     67.45     65.94    -25.49     24.82
   15.3294     67.68     66.09    -25.41     24.82
   15.3396     68.68     66.24    -24.56     24.82
   15.3498     68.25     66.39    -25.14     24.82
   15.3599     68.45     66.54    -25.10     24.82
   15.3701     66.98     66.70    -26.72     24.82
   15.3803     68.18     66.85    -25.68     24.82
   15.3904     68.61     67.01    -25.40     24.82
   15.4006     69.18     67.17    -24.99     24.82
   15.4107     69.38     67.33    -24.95     24.82
   15.4209     68.18     67.49    -26.31     24.82
   15.4311     68.62     67.65    -26.03     24.82
   15.4412     70.81     67.81    -24.00     24.81
   15.4514     70.27     67.97    -24.71     24.81
   15.4616     70.02     68.14    -25.12     24.81
   15.4717     70.48     68.30    -24.82     24.81
   15.4819     69.51     68.47    -25.96     24.81
   15.4921     69.92     68.64    -25.72     24.81
   15.5022     71.37     68.80    -24.44     24.81
   15.5124     71.21     68.97    -24.77     24.81
   15.5226     73.10     69.14    -23.05     24.81
   15.5327     70.87     69.31    -25.45     24.81
   15.5429     70.09     69.49    -26.40     24.81
   15.5530     71.37     69.66    -25.30     24.81
   15.5632     70.33     69.84    -26.51     24.81
   15.5734     70.13     70.01    -26.89     24.81
   15.5835     70.86     70.19    -26.33     24.81
   15.5937     72.59     70.37    -24.78     24.81
   15.6039     73.04     70.55    -24.51     24.80
   15.6140     71.86     70.73    -25.87     24.80
   15.6242     72.32     70.91    -25.60     24.80
   15.6344     71.70     71.10    -26.40     24.80
   15.6445     71.87     71.28    -26.41     24.80
   15.6547     73.73     71.47    -24.74     24.80
   15.6649     72.76     71.65    -25.90     24.80
   15.6750     72.78     71.84    -26.06     24.80
   15.6852     73.54     72.03    -25.49     24.80
   15.6954     74.27     72.22    -24.95     24.80
   15.7055     75.38     72.41    -24.03     24.80
   15.7157     72.29     72.60    -27.32     24.80
   15.7258     72.63     72.79    -27.17     24.80
   15.7360     73.86     72.99    -26.13     24.80
   15.7462     73.99     73.18    -26.20     24.80
   15.7563     74.07     73.38    -26.31     24.80
   15.7665     74.54     73.58    -26.04     24.79
   15.7767     74.56     73.78    -26.22     24.79
   15.7868     75.18     73.98    -25.80     24.79
   15.7970     75.34     74.18    -25.84     24.79
   15.8072     75.70     74.38    -25.68     24.79
   15.8173     74.52     74.58    -27.07     24.79
   15.8275     76.45     74.79    -25.34     24.79
   15.8377     76.16     74.99    -25.84     24.79
   15.8478     75.21     75.20    -26.99     24.79
   15.8580     76.35     75.40    -26.06     24.79
   15.8681     76.26     75.61    -26.36     24.79
   15.8783     76.54     75.82    -26.29     24.79
   15.8885     75.98     76.03    -27.06     24.79
   15.8986     77.00     76.24    -26.25     24.79
   15.9088     75.32     76.45    -28.14     24.79
   15.9190     75.61     76.67    -28.06     24.79
   15.9291     77.72     76.88    -26.16     24.78
   15.9393     78.16     77.10    -25.94     24.78
   15.9495     78.33     77.31    -25.99     24.78
   15.9596     77.64     77.53    -26.89     24.78
   15.9698     77.70     77.75    -27.05     24.78
   15.9800     78.33     77.96    -26.64     24.78
   15.9901     78.10     78.18    -27.09     24.78
   16.0003     80.00     78.40    -25.41     24.78
   16.0105     78.32     78.62    -27.31     24.78
   16.0206     78.81     78.84    -27.04     24.78
   16.0308     78.68     79.07    -27.39     24.78
   16.0409     79.19     79.29    -27.10     24.78
   16.0511     80.25     79.51    -26.27     24.78
   16.0613     79.75     79.74    -26.99     24.78
   16.0714     78.73     79.96    -28.24     24.78
   16.0816     79.40     80.19    -27.79     24.78
   16.0918     80.45     80.41    -26.97     24.77
   16.1019     78.77     80.64    -28.87     24.77
   16.1121     78.97     80.87    -28.90     24.77
   16.1223     81.16     81.10    -26.94     24.77
   16.1324     79.38     81.32    -28.95     24.77
   16.1426     80.58     81.55    -27.98     24.77
   16.1528     82.56     81.78    -26.23     24.77
   16.1629     82.52     82.01    -26.50     24.77
   16.1731     82.12     82.24    -27.13     24.77
   16.1832     81.54     82.47    -27.94     24.77
   16.1934     83.19     82.70    -26.52     24.77
   16.2036     82.13     82.94    -27.81     24.77
   16.2137     81.91     83.17    -28.26     24.77
   16.2239     83.68     83.40    -26.72     24.77
   16.2341     82.88     83.63    -27.75     24.77
   16.2442     82.46     83.86    -28.41     24.77
   16.2544     82.56     84.09    -28.54     24.76
   16.2646     83.83     84.33    -27.50     24.76
   16.2747     83.55     84.56    -28.01     24.76
   16.2849     82.85     84.79    -28.95     24.76
   16.2951     83.49     85.03    -28.54     24.76
   16.3052     83.45     85.26    -28.81     24.76
   16.3154     84.05     85.49    -28.44     24.76
   16.3256     83.75     85.72    -28.98     24.76
   16.3357     85.00     85.95    -27.96     24.76
   16.3459     84.16     86.19    -29.03     24.76
   16.3560     86.04     86.42    -27.38     24.76
   16.3662     85.66     86.65    -28.00     24.76
   16.3764     84.28     86.88    -29.61     24.76
   16.3865     86.62     87.11    -27.50     24.76
   16.3967     86.57     87.35    -27.78     24.76
   16.4069     87.15     87.58    -27.43     24.76
   16.4170     86.78     87.81    -28.03     24.75
   16.4272     86.64     88.04    -28.40     24.75
   16.4374     87.46     88.27    -27.81     24.75
   16.4475     86.45     88.49    -29.05     24.75
   16.4577     87.26     88.72    -28.47     24.75
   16.4679     86.89     88.95    -29.07     24.75
   16.4780     85.99     89.18    -30.19     24.75
   16.4882     85.91     89.40    -30.50     24.75
   16.4983     87.77     89.63    -28.86     24.75
   16.5085     88.37     89.85    -28.49     24.75
   16.5187     90.78     90.08    -26.30     24.75
   16.5288     89.03     90.30    -28.28     24.75
   16.5390     89.43     90.52    -28.10     24.75
   16.5492     87.90     90.75    -29.85     24.75
   16.5593     89.42     90.97    -28.55     24.75
   16.5695     89.60     91.19    -28.59     24.75
   16.5797     89.88     91.41    -28.53     24.74
   16.5898     90.14     91.62    -28.49     24.74
   16.6000     90.32     91.84    -28.52     24.74
   16.6102     91.16     92.06    -27.90     24.74
   16.6203     91.00     92.27    -28.27     24.74
   16.6305     90.95     92.48    -28.54     24.74
   16.6407     90.87     92.69    -28.83     24.74
   16.6508     91.12     92.90    -28.79     24.74
   16.6610     93.48     93.11    -26.64     24.74
   16.6711     91.63     93.32    -28.69     24.74
   16.6813     91.91     93.53    -28.62     24.74
   16.6915     92.36     93.73    -28.38     24.74
   16.7016     92.52     93.93    -28.42     24.74
   16.7118     94.01     94.14    -27.13     24.74
   16.7220     93.23     94.34    -28.11     24.74
   16.7321     92.89     94.53    -28.65     24.74
   16.7423     93.41     94.73    -28.33     24.73
   16.7525     94.64     94.93    -27.29     24.73
   16.7626     93.36     95.12    -28.76     24.73
   16.7728     95.29     95.31    -27.03     24.73
   16.7830     94.85     95.50    -27.66     24.73
   16.7931     94.23     95.69    -28.46     24.73
   16.8033     94.93     95.88    -27.95     24.73
   16.8134     95.27     96.06    -27.79     24.73
   16.8236     95.60     96.24    -27.65     24.73
   16.8338     95.38     96.42    -28.05     24.73
   16.8439     95.76     96.60    -27.84     24.73
   16.8541     95.57     96.78    -28.21     24.73
   16.8643     94.84     96.95    -29.12     24.73
   16.8744     96.06     97.12    -28.07     24.73
   16.8846     96.93     97.30    -27.37     24.73
   16.8948     96.13     97.46    -28.34     24.73
   16.9049     96.64     97.63    -27.99     24.72
   16.9151     97.13     97.79    -27.67     24.72
   16.9253     96.74     97.96    -28.22     24.72
   16.9354     97.70     98.11    -27.42     24.72
   16.9456     96.87     98.27    -28.41     24.72
   16.9558     97.52     98.43    -27.91     24.72
   16.9659     98.16     98.58    -27.42     24.72
   16.9761     96.25     98.73    -29.48     24.72
   16.9862     98.61     98.88    -27.27     24.72
   16.9964     98.61     99.02    -27.42     24.72
   17.0066     98.71     99.17    -27.46     24.72
   17.0167     98.52     99.31    -27.79     24.72
   17.0269     99.10     99.45    -27.35     24.72
   17.0371     97.69     99.58    -28.90     24.72
   17.0472     97.96     99.72    -28.76     24.72
   17.0574     99.76     99.85    -27.09     24.72
   17.0676     99.14     99.98    -27.84     24.71
   17.0777     98.80    100.11    -28.31     24.71
   17.0879     99.19    100.23    -28.05     24.71
   17.0981     99.76    100.36    -27.60     24.71
   17.1082    100.92    100.48    -26.56     24.71
   17.1184    100.23    100.59    -27.37     24.71
   17.1285     99.22    100.71    -28.49     24.71
   17.1387    101.30    100.83    -26.53     24.71
   17.1489    102.03    100.94    -25.91     24.71
   17.1590    101.16    101.05    -26.89     24.71
   17.1692    100.88    101.16    -27.28     24.71
   17.1794    102.21    101.26    -26.06     24.71
   17.1895    102.12    101.37    -26.25     24.71
   17.1997    101.14    101.47    -27.33     24.71
   17.2099    102.68    101.57    -25.89     24.71
   17.2200    102.97    101.67    -25.70     24.71
   17.2302    103.37    101.77    -25.40     24.70
   17.2404    104.65    101.86    -24.22     24.70
   17.2505    101.73    101.96    -27.23     24.70
   17.2607    103.17    102.05    -25.88     24.70
   17.2709    103.99    102.14    -25.16     24.70
   17.2810    102.24    102.23    -27.00     24.70
   17.2912    104.19    102.33    -25.14     24.70
   17.3013    104.26    102.42    -25.16     24.70
   17.3115    104.04    102.51    -25.47     24.70
   17.3217    103.77    102.60    -25.83     24.70
   17.3318    105.54    102.68    -24.15     24.70
   17.3420    105.50    102.77    -24.28     24.70
   17.3522    103.16    102.87    -26.71     24.70
   17.3623    104.52    102.96    -25.44     24.70
   17.3725    106.47    103.05    -23.58     24.70
   17.3827    104.83    103.14    -25.31     24.70
   17.3928    106.96    103.23    -23.28     24.69
   17.4030    106.73    103.33    -23.61     24.69
   17.4132    106.70    103.43    -23.73     24.69
   17.4233    107.93    103.53    -22.61     24.69
   17.4335    107.22    103.64    -23.42     24.69
   17.4436    106.84    103.74    -23.91     24.69
   17.4538    108.96    103.85    -21.90     24.69
   17.4640    108.36    103.97    -22.61     24.69
   17.4741    108.71    104.09    -22.38     24.69
   17.4843    109.82    104.22    -21.40     24.69
   17.4945    108.26    104.35    -23.09     24.69
   17.5046    110.20    104.48    -21.29     24.69
   17.5148    109.98    104.63    -21.65     24.69
   17.5250    108.85    104.78    -22.93     24.69
   17.5351    110.98    104.94    -20.96     24.69
   17.5453    110.35    105.11    -21.76     24.69
   17.5555    110.44    105.29    -21.85     24.68
   17.5656    111.29    105.47    -21.19     24.68
   17.5758    112.34    105.67    -20.34     24.68
   17.5859    110.99    105.88    -21.90     24.68
   17.5961    110.30    106.11    -22.81     24.68
   17.6063    112.05    106.34    -21.30     24.68
   17.6164    111.45    106.59    -22.15     24.68
   17.6266    114.13    106.86    -19.73     24.68
   17.6368    112.62    107.14    -21.53     24.68
   17.6469    112.42    107.44    -22.02     24.68
   17.6571    112.87    107.76    -21.89     24.68
   17.6673    116.07    108.10    -19.03     24.68
   17.6774    115.09    108.45    -20.36     24.68
   17.6876    114.87    108.83    -20.96     24.68
   17.6978    118.10    109.23    -18.13     24.68
   17.7079    115.74    109.65    -20.91     24.68
   17.7181    115.93    110.09    -21.17     24.67
   17.7283    116.87    110.57    -20.70     24.67
   17.7384    116.71    111.06    -21.36     24.67
   17.7486    119.44    111.59    -19.15     24.67
   17.7587    118.89    112.14    -20.26     24.67
   17.7689    118.51    112.73    -21.22     24.67
   17.7791    119.45    113.35    -20.90     24.67
   17.7892    120.74    113.99    -20.26     24.67
   17.7994    120.00    114.68    -21.68     24.67
   17.8096    122.54    115.40    -19.86     24.67
   17.8197    121.84    116.14    -21.31     24.67
   17.8299    121.63    116.94    -22.31     24.67
   17.8401    122.65    117.77    -22.12     24.67
   17.8502    125.14    118.63    -20.49     24.67
   17.8604    124.02    119.54    -22.53     24.67
   17.8706    125.80    120.49    -21.70     24.66
   17.8807    125.35    121.48    -23.13     24.66
   17.8909    126.42    122.52    -23.10     24.66
   17.9010    125.91    123.59    -24.69     24.66
   17.9112    127.35    124.72    -24.38     24.66
   17.9214    128.44    125.90    -24.46     24.66
   17.9315    128.60    127.11    -25.51     24.66
   17.9417    130.47    128.38    -24.92     24.66
   17.9519    132.35    129.70    -24.36     24.66
   17.9620    131.70    131.06    -26.36     24.66
   17.9722    134.59    132.48    -24.89     24.66
   17.9824    132.63    133.94    -28.32     24.66
   17.9925    135.98    135.45    -26.47     24.66
   18.0027    136.42    137.02    -27.60     24.66
   18.0129    137.26    138.63    -28.38     24.66
   18.0230    136.53    140.29    -30.76     24.66
   18.0332    139.67    142.01    -29.34     24.65
   18.0434    141.35    143.78    -29.43     24.65
   18.0535    142.21    145.58    -30.37     24.65
   18.0637    144.20    147.45    -30.25     24.65
   18.0738    145.76    149.35    -30.59     24.65
   18.0840    146.36    151.31    -31.95     24.65
   18.0942    147.18    153.32    -33.15     24.65
   18.1043    148.11    155.36    -34.25     24.65
   18.1145    150.95    157.46    -33.51     24.65
   18.1247    150.97    159.61    -35.64     24.65
   18.1348    152.91    161.77    -35.86     24.65
   18.1450    152.72    164.00    -38.28     24.65
   18.1552    155.77    166.26    -37.49     24.65
   18.1653    157.31    168.54    -38.23     24.65
   18.1755    160.58    170.87    -37.30     24.65
   18.1857    162.24    173.24    -38.00     24.65
   18.1958    163.56    175.61    -39.05     24.64
   18.2060    164.98    178.03    -40.05     24.64
   18.2161    166.62    180.45    -40.84     24.64
   18.2263    172.05    182.92    -37.87     24.64
   18.2365    171.46    185.40    -40.95     24.64
   18.2466    174.82    187.88    -40.06     24.64
   18.2568    175.93    190.39    -41.46     24.64
   18.2670    176.74    192.91    -43.17     24.64
   18.2771    181.90    195.41    -40.51     24.64
   18.2873    186.50    197.93    -38.43     24.64
   18.2975    185.43    200.45    -42.03     24.64
   18.3076    189.92    202.94    -40.03     24.64
   18.3178    193.59    205.45    -38.86     24.64
   18.3280    194.52    207.93    -40.42     24.64
   18.3381    198.45    210.38    -38.94     24.64
   18.3483    200.85    212.83    -38.98     24.64
   18.3585    203.82    215.25    -38.43     24.63
   18.3686    206.49    217.62    -38.13     24.63
   18.3788    209.50    219.97    -37.47     24.63
   18.3889    211.38    222.26    -37.88     24.63
   18.3991    216.52    224.53    -35.01     24.63
   18.4093    219.96    226.75    -33.79     24.63
   18.4194    221.95    228.89    -33.95     24.63
   18.4296    226.80    231.00    -31.21     24.63
   18.4398    226.59    233.05    -33.47     24.63
   18.4499    228.02    235.01    -34.00     24.63
   18.4601    234.29    236.93    -29.64     24.63
   18.4703    238.36    238.76    -27.41     24.63
   18.4804    237.48    240.51    -30.03     24.63
   18.4906    245.54    242.19    -23.65     24.63
   18.5008    247.21    243.78    -23.57     24.63
   18.5109    246.98    245.27    -25.29     24.63
   18.5211    251.72    246.68    -21.96     24.62
   18.5312    257.28    247.98    -17.71     24.62
   18.5414    254.10    249.20    -22.10     24.62
   18.5516    258.85    250.31    -18.47     24.62
   18.5617    260.41    251.32    -17.91     24.62
   18.5719    260.84    252.22    -18.38     24.62
   18.5821    265.20    253.02    -14.82     24.62
   18.5922    264.55    253.69    -16.15     24.62
   18.6024    264.77    254.27    -16.50     24.62
   18.6126    268.71    254.73    -13.02     24.62
   18.6227    267.70    255.07    -14.37     24.62
   18.6329    267.23    255.29    -15.07     24.62
   18.6431    268.57    255.41    -13.84     24.62
   18.6532    269.68    255.40    -12.72     24.62
   18.6634    269.88    255.28    -12.40     24.62
   18.6736    269.95    255.04    -12.09     24.62
   18.6837    270.02    254.69    -11.67     24.61
   18.6939    267.85    254.22    -13.37     24.61
   18.7040    267.40    253.64    -13.25     24.61
   18.7142    267.31    252.95    -12.64     24.61
   18.7244    263.57    252.14    -15.58     24.61
   18.7345    261.56    251.24    -16.68     24.61
   18.7447    261.41    250.22    -15.81     24.61
   18.7549    254.32    249.09    -21.78     24.61
   18.7650    258.24    247.88    -16.65     24.61
   18.7752    254.28    246.56    -19.28     24.61
   18.7854    250.18    245.14    -21.96     24.61
   18.7955    250.60    243.64    -20.05     24.61
   18.8057    246.27    242.05    -22.78     24.61
   18.8159    243.28    240.36    -24.09     24.61
   18.8260    239.38    238.62    -26.24     24.61
   18.8362    236.56    236.78    -27.22     24.61
   18.8463    234.57    234.88    -27.32     24.60
   18.8565    231.34    232.90    -28.56     24.60
   18.8667    229.77    230.85    -28.09     24.60
   18.8768    223.37    228.77    -32.40     24.60
   18.8870    221.19    226.60    -32.42     24.60
   18.8972    219.99    224.39    -31.40     24.60
   18.9073    213.51    222.15    -35.64     24.60
   18.9175    213.17    219.85    -33.68     24.60
   18.9277    208.26    217.50    -36.25     24.60
   18.9378    205.66    215.15    -36.49     24.60
   18.9480    201.50    212.74    -38.25     24.60
   18.9582    201.15    210.31    -36.17     24.60
   18.9683    196.49    207.89    -38.40     24.60
   18.9785    195.45    205.42    -36.97     24.60
   18.9887    191.40    202.94    -38.54     24.60
   18.9988    189.45    200.48    -38.03     24.60
   19.0090    188.75    197.98    -36.24     24.59
   19.0191    182.99    195.52    -39.53     24.59
   19.0293    182.07    193.03    -37.96     24.59
   19.0395    180.00    190.55    -37.56     24.59
   19.0496    175.95    188.11    -39.16     24.59
   19.0598    172.84    185.65    -39.82     24.59
   19.0700    173.13    183.22    -37.09     24.59
   19.0801    170.59    180.83    -37.24     24.59
   19.0903    166.85    178.44    -38.60     24.59
   19.1005    165.61    176.08    -37.48     24.59
   19.1106    166.41    173.78    -34.37     24.59
   19.1208    162.36    171.48    -36.12     24.59
   19.1310    161.40    169.22    -34.82     24.59
   19.1411    159.42    167.02    -34.60     24.59
   19.1513    157.20    164.84    -34.64     24.59
   19.1614    155.90    162.72    -33.83     24.59
   19.1716    153.99    160.63    -33.64     24.58
   19.1818    151.63    158.58    -33.96     24.58
   19.1919    151.73    156.60    -31.88     24.58
   19.2021    150.10    154.65    -31.56     24.58
   19.2123    147.89    152.76    -31.87     24.58
   19.2224    148.79    150.93    -29.14     24.58
   19.2326    147.51    149.14    -28.63     24.58
   19.2428    145.20    147.40    -29.20     24.58
   19.2529    144.74    145.73    -28.00     24.58
   19.2631    144.75    144.11    -26.36     24.58
   19.2733    142.52    142.53    -27.02     24.58
   19.2834    141.23    141.03    -26.81     24.58
   19.2936    140.77    139.58    -25.81     24.58
   19.3038    140.54    138.17    -24.64     24.58
   19.3139    139.48    136.84    -24.37     24.58
   19.3241    137.37    135.56    -25.19     24.58
   19.3342    138.98    134.34    -22.36     24.57
   19.3444    137.26    133.16    -22.90     24.57
   19.3546    136.25    132.04    -22.79     24.57
   19.3647    135.80    130.99    -22.19     24.57
   19.3749    136.23    129.98    -20.75     24.57
   19.3851    135.60    129.02    -20.42     24.57
   19.3952    132.76    128.13    -22.37     24.57
   19.4054    133.54    127.28    -20.74     24.57
   19.4156    132.23    126.48    -21.25     24.57
   19.4257    131.29    125.74    -21.45     24.57
   19.4359    132.42    125.04    -19.62     24.57
   19.4461    129.37    124.39    -22.02     24.57
   19.4562    129.46    123.79    -21.34     24.57
   19.4664    129.49    123.24    -20.75     24.57
   19.4765    130.38    122.73    -19.36     24.57
   19.4867    127.29    122.27    -21.98     24.57
   19.4969    128.92    121.84    -19.93     24.56
   19.5070    127.18    121.47    -21.29     24.56
   19.5172    128.59    121.13    -19.54     24.56
   19.5274    126.91    120.83    -20.92     24.56
   19.5375    129.16    120.56    -18.41     24.56
   19.5477    128.24    120.34    -19.10     24.56
   19.5579    128.46    120.15    -18.69     24.56
   19.5680    125.44    120.00    -21.56     24.56
   19.5782    126.59    119.87    -20.29     24.56
   19.5884    125.04    119.78    -21.75     24.56
   19.5985    126.77    119.73    -19.96     24.56
   19.6087    125.99    119.70    -20.71     24.56
   19.6188    125.71    119.69    -20.99     24.56
   19.6290    126.37    119.72    -20.35     24.56
   19.6392    125.02    119.77    -21.76     24.56
   19.6493    125.13    119.85    -21.72     24.56
   19.6595    123.03    119.95    -23.92     24.55
   19.6697    124.21    120.07    -22.87     24.55
   19.6798    123.46    120.22    -23.76     24.55
   19.6900    124.04    120.38    -23.35     24.55
   19.7002    124.96    120.57    -22.61     24.55
   19.7103    123.25    120.77    -24.53     24.55
   19.7205    123.99    120.99    -24.01     24.55
   19.7307    124.07    121.23    -24.17     24.55
   19.7408    122.57    121.48    -25.92     24.55
   19.7510    122.24    121.75    -26.52     24.55
   19.7612    125.30    122.03    -23.74     24.55
   19.7713    122.77    122.33    -26.56     24.55
   19.7815    124.27    122.63    -25.37     24.55
   19.7916    123.52    122.95    -26.43     24.55
   19.8018    123.23    123.28    -27.05     24.55
   19.8120    122.40    123.62    -28.22     24.55
   19.8221    122.25    123.96    -28.72     24.54
   19.8323    123.68    124.32    -27.64     24.54
   19.8425    123.37    124.68    -28.32     24.54
   19.8526    123.79    125.05    -28.26     24.54
   19.8628    123.00    125.42    -29.43     24.54
   19.8730    123.71    125.81    -29.10     24.54
   19.8831    123.80    126.19    -29.39     24.54
   19.8933    124.12    126.58    -29.46     24.54
   19.9035    124.93    126.97    -29.05     24.54
   19.9136    121.49    127.36    -32.88     24.54
   19.9238    126.38    127.76    -28.39     24.54
   19.9339    124.57    128.16    -30.59     24.54
   19.9441    123.09    128.56    -32.48     24.54
   19.9543    124.87    128.96    -31.10     24.54
   19.9644    126.25    129.36    -30.12     24.54
   19.9746    124.75    129.76    -32.02     24.54
   19.9848    124.35    130.17    -32.82     24.53
   19.9949    125.71    130.56    -31.86     24.53
   20.0051    124.07    130.96    -33.89     24.53
   20.0153    125.46    131.36    -32.90     24.53
   20.0254    126.84    131.75    -31.91     24.53
   20.0356    125.43    132.14    -33.71     24.53
   20.0458    125.99    132.52    -33.54     24.53
   20.0559    127.70    132.90    -32.21     24.53
   20.0661    126.33    133.28    -33.95     24.53
   20.0763    126.47    133.65    -34.19     24.53
   20.0864    127.73    134.02    -33.29     24.53
   20.0966    126.46    134.38    -34.92     24.53
   20.1067    127.64    134.73    -34.10     24.53
   20.1169    129.99    135.08    -32.10     24.53
   20.1271    128.35    135.43    -34.08     24.53
   20.1372    130.87    135.76    -31.90     24.53
   20.1474    129.91    136.09    -33.19     24.52
   20.1576    131.37    136.42    -32.05     24.52
   20.1677    131.40    136.73    -32.33     24.52
   20.1779    131.65    137.03    -32.39     24.52
   20.1881    129.91    137.33    -34.42     24.52
   20.1982    131.97    137.62    -32.65     24.52
   20.2084    132.84    137.90    -32.06     24.52
   20.2186    131.62    138.17    -33.55     24.52
   20.2287    132.33    138.43    -33.10     24.52
   20.2389    133.60    138.68    -32.08     24.52
   20.2490    133.93    138.91    -31.99     24.52
   20.2592    135.73    139.15    -30.42     24.52
   20.2694    134.99    139.37    -31.38     24.52
   20.2795    135.23    139.57    -31.35     24.52
   20.2897    136.21    139.77    -30.56     24.52
   20.2999    137.63    139.96    -29.33     24.52
   20.3100    136.49    140.13    -30.65     24.51
   20.3202    138.38    140.30    -28.92     24.51
   20.3304    138.13    140.45    -29.32     24.51
   20.3405    137.22    140.59    -30.37     24.51
   20.3507    138.63    140.72    -29.09     24.51
   20.3609    138.32    140.83    -29.52     24.51
   20.3710    139.24    140.94    -28.70     24.51
   20.3812    140.81    141.03    -27.22     24.51
   20.3914    140.04    141.11    -28.07     24.51
   20.4015    139.00    141.17    -29.18     24.51
   20.4117    141.97    141.23    -26.26     24.51
   20.4218    141.57    141.27    -26.70     24.51
   20.4320    142.11    141.29    -26.19     24.51
   20.4422    140.93    141.31    -27.38     24.51
   20.4523    142.15    141.31    -26.17     24.51
   20.4625    142.70    141.30    -25.61     24.51
   20.4727    142.63    141.28    -25.65     24.50
   20.4828    144.38    141.24    -23.87     24.50
   20.4930    143.01    141.20    -25.19     24.50
   20.5032    144.59    141.13    -23.55     24.50
   20.5133    147.12    141.06    -20.94     24.50
   20.5235    142.79    140.97    -25.19     24.50
   20.5337    145.85    140.87    -22.03     24.50
   20.5438    143.59    140.76    -24.17     24.50
   20.5540    145.30    140.64    -22.34     24.50
   20.5641    145.30    140.50    -22.20     24.50
   20.5743    145.37    140.35    -21.98     24.50
   20.5845    145.30    140.19    -21.89     24.50
   20.5946    147.55    140.01    -19.47     24.50
   20.6048    146.38    139.83    -20.45     24.50
   20.6150    146.16    139.63    -20.47     24.50
   20.6251    144.53    139.42    -21.90     24.50
   20.6353    146.05    139.20    -20.15     24.49
   20.6455    144.43    138.97    -21.54     24.49
   20.6556    144.05    138.73    -21.68     24.49
   20.6658    142.74    138.47    -22.74     24.49
   20.6760    143.86    138.21    -21.35     24.49
   20.6861    141.93    137.93    -23.01     24.49
   20.6963    143.29    137.65    -21.36     24.49
   20.7065    143.48    137.35    -20.88     24.49
   20.7166    142.54    137.05    -21.51     24.49
   20.7268    142.66    136.73    -21.08     24.49
   20.7369    142.34    136.41    -21.08     24.49
   20.7471    144.31    136.08    -18.77     24.49
   20.7573    141.63    135.74    -21.11     24.49
   20.7674    139.56    135.39    -22.84     24.49
   20.7776    139.07    135.03    -22.97     24.49
   20.7878    139.34    134.67    -22.33     24.49
   20.7979    138.19    134.30    -23.11     24.48
   20.8081    139.60    133.92    -21.32     24.48
   20.8183    136.52    133.53    -24.01     24.48
   20.8284    136.44    133.14    -23.70     24.48
   20.8386    136.25    132.74    -23.49     24.48
   20.8488    135.44    132.33    -23.89     24.48
   20.8589    133.41    131.92    -25.52     24.48
   20.8691    135.08    131.50    -23.43     24.48
   20.8792    134.31    131.09    -23.78     24.48
   20.8894    131.80    130.66    -25.86     24.48
   20.8996    132.93    130.23    -24.30     24.48
   20.9097    129.71    129.80    -27.09     24.48
   20.9199    130.32    129.36    -26.04     24.48
   20.9301    131.15    128.92    -24.77     24.48
   20.9402    130.87    128.48    -24.61     24.48
   20.9504    127.98    128.03    -27.06     24.48
   20.9606    128.01    127.58    -26.58     24.47
   20.9707    128.07    127.14    -26.07     24.47
   20.9809    126.82    126.69    -26.87     24.47
   20.9911    126.08    126.23    -27.16     24.47
   21.0012    125.70    125.79    -27.09     24.47
   21.0114    125.24    125.33    -27.10     24.47
   21.0216    124.31    124.88    -27.58     24.47
   21.0317    122.59    124.44    -28.85     24.47
   21.0419    120.93    123.99    -30.06     24.47
   21.0520    123.99    123.54    -26.56     24.47
   21.0622    121.07    123.10    -29.03     24.47
   21.0724    122.12    122.65    -27.54     24.47
   21.0825    121.54    122.21    -27.68     24.47
   21.0927    120.38    121.78    -28.40     24.47
   21.1029    118.83    121.34    -29.52     24.47
   21.1130    120.80    120.92    -27.12     24.47
   21.1232    119.01    120.49    -28.49     24.46
   21.1334    118.32    120.07    -28.75     24.46
   21.1435    117.46    119.66    -29.20     24.46
   21.1537    118.21    119.25    -28.04     24.46
   21.1639    116.53    118.85    -29.32     24.46
   21.1740    115.62    118.45    -29.84     24.46
   21.1842    115.80    118.06    -29.27     24.46
   21.1943    115.41    117.68    -29.28     24.46
   21.2045    114.66    117.31    -29.65     24.46
   21.2147    114.97    116.94    -28.98     24.46
   21.2248    112.60    116.59    -30.99     24.46
   21.2350    114.11    116.24    -29.13     24.46
   21.2452    114.96    115.90    -27.95     24.46
   21.2553    112.37    115.58    -30.21     24.46
   21.2655    113.95    115.26    -28.31     24.46
   21.2757    113.24    114.95    -28.71     24.45
   21.2858    112.20    114.66    -29.46     24.45
   21.2960    112.16    114.37    -29.21     24.45
   21.3062    114.18    114.10    -26.92     24.45
   21.3163    111.22    113.84    -29.62     24.45
   21.3265    110.46    113.59    -30.14     24.45
   21.3366    111.04    113.36    -29.32     24.45
   21.3468    109.96    113.14    -30.18     24.45
   21.3570    111.89    112.93    -28.05     24.45
   21.3671    111.58    112.74    -28.17     24.45
   21.3773    111.59    112.56    -27.98     24.45
   21.3875    112.33    112.40    -27.08     24.45
   21.3976    110.77    112.26    -28.49     24.45
   21.4078    110.43    112.13    -28.70     24.45
   21.4180    110.85    112.01    -28.17     24.45
   21.4281    110.76    111.91    -28.16     24.45
   21.4383    109.15    111.83    -29.69     24.44
   21.4485    110.79    111.77    -27.98     24.44
   21.4586    109.84    111.72    -28.89     24.44
   21.4688    109.33    111.70    -29.37     24.44
   21.4790    110.62    111.69    -28.07     24.44
   21.4891    109.91    111.70    -28.79     24.44
   21.4993    109.19    111.72    -29.54     24.44
   21.5094    110.91    111.77    -27.86     24.44
   21.5196    110.82    111.84    -28.02     24.44
   21.5298    109.32    111.92    -29.61     24.44
   21.5399    110.42    112.03    -28.61     24.44
   21.5501    111.72    112.15    -27.44     24.44
   21.5603    109.67    112.30    -29.63     24.44
   21.5704    110.61    112.46    -28.86     24.44
   21.5806    111.49    112.65    -28.17     24.44
   21.5908    110.50    112.86    -29.36     24.44
   21.6009    111.19    113.09    -28.90     24.43
   21.6111    112.33    113.34    -28.01     24.43
   21.6213    112.37    113.61    -28.24     24.43
   21.6314    113.50    113.90    -27.40     24.43
   21.6416    112.94    114.21    -28.28     24.43
   21.6517    111.16    114.54    -30.39     24.43
   21.6619    114.11    114.90    -27.79     24.43
   21.6721    115.94    115.28    -26.34     24.43
   21.6822    114.04    115.67    -28.64     24.43
   21.6924    115.59    116.09    -27.51     24.43
   21.7026    115.60    116.54    -27.94     24.43
   21.7127    115.60    116.99    -28.40     24.43
   21.7229    118.34    117.48    -26.14     24.43
   21.7331    116.68    117.98    -28.31     24.43
   21.7432    117.03    118.50    -28.48     24.43
   21.7534    119.05    119.05    -27.00     24.43
   21.7636    120.22    119.61    -26.40     24.42
   21.7737    119.22    120.19    -27.98     24.42
   21.7839    120.08    120.80    -27.72     24.42
   21.7941    121.65    121.42    -26.78     24.42
   21.8042    119.60    122.06    -29.46     24.42
   21.8144    121.85    122.72    -27.88     24.42
   21.8245    123.88    123.39    -26.52     24.42
   21.8347    122.48    124.09    -28.62     24.42
   21.8449    123.67    124.81    -28.14     24.42
   21.8550    126.26    125.53    -26.27     24.42
   21.8652    124.77    126.28    -28.51     24.42
   21.8754    126.18    127.04    -27.86     24.42
   21.8855    127.38    127.81    -27.43     24.42
   21.8957    127.62    128.60    -27.98     24.42
   21.9059    128.69    129.40    -27.72     24.42
   21.9160    128.66    130.21    -28.56     24.42
   21.9262    129.23    131.05    -28.82     24.41
   21.9364    130.59    131.89    -28.30     24.41
   21.9465    133.10    132.73    -26.63     24.41
   21.9567    132.08    133.59    -28.52     24.41
   21.9668    134.01    134.46    -27.45     24.41
   21.9770    135.37    135.33    -26.97     24.41
   21.9872    134.60    136.22    -28.63     24.41
   21.9973    138.91    137.11    -25.20     24.41
   22.0075    136.06    138.00    -28.95     24.41
   22.0177    137.46    138.91    -28.45     24.41
   22.0278    139.41    139.80    -27.40     24.41
   22.0380    140.60    140.71    -27.12     24.41
   22.0482    139.29    141.62    -29.34     24.41
   22.0583    142.75    142.53    -26.78     24.41
   22.0685    143.39    143.44    -27.05     24.41
   22.0787    143.01    144.34    -28.34     24.41
   22.0888    145.05    145.24    -27.20     24.40
   22.0990    146.61    146.14    -26.54     24.40
   22.1092    145.30    147.04    -28.74     24.40
   22.1193    146.48    147.92    -28.45     24.40
   22.1295    149.48    148.81    -26.33     24.40
   22.1396    149.09    149.67    -27.59     24.40
   22.1498    151.66    150.54    -25.88     24.40
   22.1600    152.80    151.39    -25.60     24.40
   22.1701    152.74    152.23    -26.49     24.40
   22.1803    155.66    153.06    -24.40     24.40
   22.1905    157.87    153.88    -23.01     24.40
   22.2006    155.75    154.67    -25.92     24.40
   22.2108    157.59    155.46    -24.87     24.40
   22.2210    158.90    156.22    -24.33     24.40
   22.2311    158.80    156.96    -25.17     24.40
   22.2413    162.68    157.69    -22.02     24.40
   22.2515    163.03    158.40    -22.38     24.39
   22.2616    161.71    159.08    -24.38     24.39
   22.2718    162.43    159.75    -24.32     24.39
   22.2819    165.40    160.38    -21.98     24.39
   22.2921    163.96    160.99    -24.04     24.39
   22.3023    164.50    161.58    -24.09     24.39
   22.3124    166.09    162.14    -23.05     24.39
   22.3226    167.34    162.67    -22.34     24.39
   22.3328    167.21    163.18    -22.97     24.39
   22.3429    167.71    163.65    -22.94     24.39
   22.3531    166.83    164.10    -24.27     24.39
   22.3633    170.41    164.51    -21.10     24.39
   22.3734    168.95    164.89    -22.94     24.39
   22.3836    166.59    165.24    -25.65     24.39
   22.3938    170.92    165.55    -21.64     24.39
   22.4039    171.11    165.83    -21.73     24.39
   22.4141    169.98    166.08    -23.10     24.38
   22.4243    170.16    166.29    -23.13     24.38
   22.4344    171.62    166.46    -21.85     24.38
   22.4446    169.65    166.60    -23.96     24.38
   22.4547    172.27    166.71    -21.44     24.38
   22.4649    172.38    166.77    -21.40     24.38
   22.4751    168.43    166.80    -25.38     24.38
   22.4852    169.73    166.80    -24.07     24.38
   22.4954    170.83    166.75    -22.92     24.38
   22.5056    166.52    166.67    -27.15     24.38
   22.5157    168.71    166.55    -24.84     24.38
   22.5259    169.29    166.39    -24.10     24.38
   22.5361    168.18    166.19    -25.02     24.38
   22.5462    167.83    165.96    -25.14     24.38
   22.5564    168.02    165.69    -24.68     24.38
   22.5666    166.68    165.39    -25.71     24.38
   22.5767    165.51    165.05    -26.54     24.37
   22.5869    167.43    164.67    -24.24     24.37
   22.5970    164.64    164.25    -26.62     24.37
   22.6072    163.66    163.80    -27.15     24.37
   22.6174    163.90    163.32    -26.42     24.37
   22.6275    162.14    162.80    -27.66     24.37
   22.6377    162.08    162.24    -27.17     24.37
   22.6479    162.63    161.66    -26.03     24.37
   22.6580    159.80    161.04    -28.25     24.37
   22.6682    159.46    160.39    -27.93     24.37
   22.6784    160.09    159.71    -26.62     24.37
   22.6885    155.66    159.00    -30.34     24.37
   22.6987    156.29    158.25    -28.97     24.37
   22.7089    156.37    157.48    -28.12     24.37
   22.7190    153.51    156.69    -30.18     24.37
   22.7292    153.76    155.86    -29.11     24.37
   22.7394    153.65    155.01    -28.37     24.36
   22.7495    150.19    154.14    -30.96     24.36
   22.7597    150.78    153.24    -29.46     24.36
   22.7698    150.38    152.33    -28.95     24.36
   22.7800    145.38    151.38    -33.00     24.36
   22.7902    147.41    150.41    -30.01     24.36
   22.8003    147.99    149.44    -28.45     24.36
   22.8105    143.34    148.43    -32.09     24.36
   22.8207    143.26    147.41    -31.15     24.36
   22.8308    142.09    146.38    -31.29     24.36
   22.8410    139.89    145.32    -32.44     24.36
   22.8512    141.15    144.25    -30.11     24.36
   22.8613    138.12    143.18    -32.06     24.36
   22.8715    139.09    142.08    -30.00     24.36
   22.8817    138.65    140.98    -29.33     24.36
   22.8918    136.73    139.87    -30.14     24.36
   22.9020    134.86    138.74    -30.89     24.35
   22.9121    133.36    137.62    -31.27     24.35
   22.9223    131.56    136.48    -31.92     24.35
   22.9325    129.96    135.33    -32.38     24.35
   22.9426    131.75    134.19    -29.45     24.35
   22.9528    131.04    133.04    -29.00     24.35
   22.9630    128.52    131.88    -30.36     24.35
   22.9731    128.63    130.73    -29.10     24.35
   22.9833    126.40    129.57    -30.17     24.35
   22.9935    125.41    128.41    -30.00     24.35
   23.0036    124.43    127.26    -29.83     24.35
   23.0138    123.99    126.10    -29.11     24.35
   23.0240    121.90    124.94    -30.05     24.35
   23.0341    122.02    123.80    -28.78     24.35
   23.0443    121.30    122.65    -28.35     24.35
   23.0545    119.67    121.51    -28.84     24.35
   23.0646    118.97    120.38    -28.42     24.34
   23.0748    116.46    119.25    -29.79     24.34
   23.0849    116.37    118.14    -28.77     24.34
   23.0951    115.74    117.02    -28.29     24.34
   23.1053    114.59    115.92    -28.33     24.34
   23.1154    112.83    114.83    -29.00     24.34
   23.1256    114.31    113.74    -26.44     24.34
   23.1358    112.73    112.67    -26.94     24.34
   23.1459    110.70    111.61    -27.91     24.34
   23.1561    110.42    110.56    -27.14     24.34
   23.1663    111.21    109.51    -25.31     24.34
   23.1764    107.84    108.50    -27.66     24.34
   23.1866    108.48    107.48    -26.00     24.34
   23.1968    108.38    106.48    -25.10     24.34
   23.2069    105.66    105.50    -26.84     24.34
   23.2171    106.88    104.52    -24.65     24.34
   23.2272    106.74    103.57    -23.84     24.33
   23.2374    103.62    102.63    -26.01     24.33
   23.2476    104.53    101.70    -24.17     24.33
   23.2577    103.50    100.79    -24.29     24.33
   23.2679    101.93     99.89    -24.96     24.33
   23.2781    100.39     99.01    -25.62     24.33
   23.2882    100.27     98.15    -24.88     24.33
   23.2984    101.26     97.30    -23.04     24.33
   23.3086     98.63     96.46    -24.83     24.33
   23.3187     95.52     95.65    -27.13     24.33
   23.3289     97.95     94.84    -23.90     24.33
   23.3391     97.24     94.06    -23.82     24.33
   23.3492     96.51     93.29    -23.79     24.33
   23.3594     95.07     92.54    -24.47     24.33
   23.3695     93.97     91.81    -24.84     24.33
   23.3797     94.13     91.08    -23.96     24.33
   23.3899     93.27     90.38    -24.11     24.32
   23.4000     92.79     89.69    -23.91     24.32
   23.4102     90.83     89.02    -25.19     24.32
   23.4204     92.50     88.36    -22.86     24.32
   23.4305     91.16     87.72    -23.57     24.32
   23.4407     91.21     87.10    -22.89     24.32
   23.4509     90.89     86.48    -22.60     24.32
   23.4610     89.77     85.89    -23.13     24.32
   23.4712     89.19     85.31    -23.12     24.32
   23.4814     87.52     84.74    -24.23     24.32
   23.4915     88.01     84.19    -23.19     24.32
   23.5017     86.59     83.66    -24.07     24.32
   23.5119     85.54     83.13    -24.60     24.32
   23.5220     86.80     82.63    -22.83     24.32
   23.5322     85.05     82.13    -24.08     24.32
   23.5423     84.37     81.65    -24.29     24.32
   23.5525     84.90     81.18    -23.29     24.31
   23.5627     83.03     80.72    -24.70     24.31
   23.5728     83.80     80.28    -23.49     24.31
   23.5830     82.36     79.85    -24.50     24.31
   23.5932     82.26     79.43    -24.17     24.31
   23.6033     82.10     79.03    -23.93     24.31
   23.6135     82.11     78.63    -23.52     24.31
   23.6237     81.60     78.24    -23.65     24.31
   23.6338     81.35     77.87    -23.53     24.31
   23.6440     82.02     77.51    -22.49     24.31
   23.6542     79.66     77.15    -24.50     24.31
   23.6643     80.14     76.81    -23.68     24.31
   23.6745     79.91     76.48    -23.57     24.31
   23.6846     79.30     76.16    -23.86     24.31
   23.6948     77.98     75.84    -24.87     24.31
   23.7050     78.53     75.54    -24.01     24.31
   23.7151     77.96     75.24    -24.28     24.30
   23.7253     77.99     74.95    -23.97     24.30
   23.7355     77.44     74.67    -24.23     24.30
   23.7456     78.05     74.40    -23.35     24.30
   23.7558     75.27     74.13    -25.87     24.30
   23.7660     75.95     73.88    -24.93     24.30
   23.7761     75.47     73.63    -25.16     24.30
   23.7863     74.37     73.38    -26.02     24.30
   23.7965     76.29     73.14    -23.86     24.30
   23.8066     74.47     72.92    -25.45     24.30
   23.8168     75.28     72.69    -24.41     24.30
   23.8270     73.44     72.47    -26.03     24.30
   23.8371     73.90     72.26    -25.36     24.30
   23.8473     73.87     72.05    -25.18     24.30
   23.8574     73.29     71.85    -25.56     24.30
   23.8676     71.94     71.65    -26.72     24.30
   23.8778     72.30     71.46    -26.16     24.29
   23.8879     71.59     71.27    -26.69     24.29
   23.8981     72.64     71.09    -25.45     24.29
   23.9083     72.12     70.91    -25.79     24.29
   23.9184     70.87     70.73    -26.87     24.29
   23.9286     69.60     70.56    -27.97     24.29
   23.9388     72.70     70.39    -24.70     24.29
   23.9489     69.89     70.23    -27.35     24.29
   23.9591     70.33     70.07    -26.74     24.29
   23.9693     69.76     69.91    -27.16     24.29
   23.9794     69.12     69.76    -27.64     24.29
   23.9896     69.76     69.61    -26.85     24.29
   23.9997     69.00     69.46    -27.46     24.29
   24.0099     69.84     69.31    -26.48     24.29
   24.0201     68.46     69.17    -27.71     24.29
   24.0302     68.98     69.03    -27.05     24.29
   24.0404     68.90     68.89    -27.00     24.28
   24.0506     67.22     68.75    -28.54     24.28
   24.0607     68.76     68.62    -26.87     24.28
   24.0709     68.18     68.49    -27.31     24.28
   24.0811     67.89     68.36    -27.47     24.28
   24.0912     67.74     68.23    -27.49     24.28
   24.1014     66.12     68.10    -28.99     24.28
   24.1116     66.47     67.98    -28.51     24.28
   24.1217     66.98     67.86    -27.88     24.28
   24.1319     66.14     67.73    -28.60     24.28
   24.1421     66.26     67.61    -28.36     24.28
   24.1522     65.92     67.49    -28.58     24.28
   24.1624     65.26     67.37    -29.12     24.28
   24.1725     64.66     67.26    -29.60     24.28
   24.1827     66.18     67.14    -27.97     24.28
   24.1929     64.01     67.03    -30.02     24.28
   24.2030     65.28     66.91    -28.64     24.27
   24.2132     65.30     66.80    -28.50     24.27
   24.2234     64.79     66.69    -28.90     24.27
   24.2335     65.63     66.58    -27.95     24.27
   24.2437     64.94     66.47    -28.53     24.27
   24.2539     64.00     66.36    -29.36     24.27
   24.2640     63.35     66.25    -29.90     24.27
   24.2742     63.66     66.14    -29.48     24.27
   24.2844     64.71     66.03    -28.33     24.27
   24.2945     63.48     65.93    -29.45     24.27
   24.3047     63.35     65.82    -29.47     24.27
   24.3148     62.87     65.71    -29.85     24.27
   24.3250     62.79     65.61    -29.82     24.27
   24.3352     63.03     65.50    -29.48     24.27
   24.3453     62.08     65.40    -30.32     24.27
   24.3555     63.22     65.29    -29.08     24.27
   24.3657     63.58     65.19    -28.61     24.26
   24.3758     61.94     65.09    -30.15     24.26
   24.3860     60.83     64.98    -31.16     24.26
   24.3962     62.01     64.88    -29.88     24.26
   24.4063     62.77     64.78    -29.01     24.26
   24.4165     62.08     64.68    -29.60     24.26
   24.4267     62.68     64.58    -28.90     24.26
   24.4368     60.62     64.47    -30.86     24.26
   24.4470     60.98     64.37    -30.40     24.26
   24.4572     62.49     64.27    -28.79     24.26
   24.4673     61.20     64.17    -29.98     24.26
   24.4775     60.82     64.07    -30.26     24.26
   24.4876     60.12     63.97    -30.86     24.26
   24.4978     60.91     63.87    -29.97     24.26
   24.5080     59.87     63.77    -30.91     24.26
   24.5181     61.89     63.67    -28.79     24.26
   24.5283     60.78     63.57    -29.80     24.25
   24.5385     60.95     63.47    -29.53     24.25
   24.5486     60.65     63.37    -29.73     24.25
   24.5588     61.43     63.27    -28.85     24.25
   24.5690     59.89     63.18    -30.29     24.25
   24.5791     59.29     63.08    -30.79     24.25
   24.5893     59.98     62.98    -30.00     24.25
   24.5995     59.66     62.88    -30.22     24.25
   24.6096     59.26     62.78    -30.53     24.25
   24.6198     58.40     62.68    -31.29     24.25
   24.6299     60.08     62.59    -29.51     24.25
   24.6401     58.50     62.49    -30.99     24.25
   24.6503     59.46     62.39    -29.93     24.25
   24.6604     58.63     62.29    -30.67     24.25
   24.6706     59.49     62.19    -29.71     24.25
   24.6808     58.28     62.10    -30.82     24.25
   24.6909     58.67     62.00    -30.33     24.24
   24.7011     58.73     61.90    -30.18     24.24
   24.7113     58.56     61.80    -30.25     24.24
   24.7214     58.75     61.71    -29.96     24.24
   24.7316     59.05     61.61    -29.56     24.24
   24.7418     58.16     61.51    -30.36     24.24
   24.7519     57.55     61.42    -30.87     24.24
   24.7621     58.45     61.32    -29.87     24.24
   24.7723     58.15     61.22    -30.08     24.24
   24.7824     59.12     61.13    -29.01     24.24
   24.7926     58.21     61.03    -29.82     24.24
   24.8027     57.02     60.93    -30.92     24.24
   24.8129     57.43     60.84    -30.41     24.24
   24.8231     58.29     60.74    -29.46     24.24
   24.8332     56.86     60.65    -30.79     24.24
   24.8434     57.17     60.55    -30.38     24.23
   24.8536     56.23     60.45    -31.23     24.23
   24.8637     57.05     60.36    -30.31     24.23
   24.8739     57.27     60.26    -30.00     24.23
   24.8841     56.60     60.17    -30.57     24.23
   24.8942     56.52     60.07    -30.56     24.23
   24.9044     59.09     59.98    -27.89     24.23
   24.9146     56.88     59.88    -30.00     24.23
   24.9247     56.96     59.79    -29.83     24.23
   24.9349     55.25     59.69    -31.44     24.23
   24.9450     56.57     59.60    -30.03     24.23
   24.9552     57.29     59.50    -29.22     24.23
   24.9654     56.55     59.41    -29.86     24.23
   24.9755     56.34     59.31    -29.98     24.23
   24.9857     56.98     59.22    -29.24     24.23
   24.9959     56.50     59.12    -29.63     24.23
   25.0060     57.23     59.03    -28.80     24.22
   25.0162     56.21     58.93    -29.73     24.22
   25.0264     56.73     58.84    -29.11     24.22
   25.0365     55.45     58.75    -30.30     24.22
   25.0467     55.59     58.65    -30.07     24.22
   25.0569     57.25     58.56    -28.31     24.22
   25.0670     55.65     58.46    -29.82     24.22
   25.0772     56.33     58.37    -29.04     24.22
   25.0874     55.90     58.28    -29.38     24.22
   25.0975     55.38     58.18    -29.81     24.22
   25.1077     55.79     58.09    -29.30     24.22
   25.1178     56.45     58.00    -28.55     24.22
   25.1280     55.33     57.90    -29.58     24.22
   25.1382     53.99     57.81    -30.82     24.22
   25.1483     55.64     57.72    -29.08     24.22
   25.1585     55.70     57.62    -28.93     24.22
   25.1687     56.35     57.53    -28.19     24.21
   25.1788     54.91     57.44    -29.53     24.21
   25.1890     55.15     57.35    -29.20     24.21
   25.1992     54.99     57.25    -29.27     24.21
   25.2093     55.58     57.16    -28.59     24.21
   25.2195     55.23     57.07    -28.84     24.21
   25.2297     55.18     56.98    -28.80     24.21
   25.2398     55.16     56.89    -28.73     24.21
   25.2500     53.96     56.79    -29.84     24.21
   25.2601     55.79     56.70    -27.92     24.21
   25.2703     55.01     56.61    -28.60     24.21
   25.2805     54.98     56.52    -28.54     24.21
   25.2906     55.99     56.43    -27.44     24.21
   25.3008     54.45     56.34    -28.89     24.21
   25.3110     55.24     56.25    -28.01     24.21
   25.3211     55.57     56.15    -27.59     24.21
   25.3313     54.46     56.06    -28.61     24.20
   25.3415     53.38     55.97    -29.60     24.20
   25.3516     55.80     55.88    -27.09     24.20
   25.3618     54.08     55.79    -28.72     24.20
   25.3720     55.01     55.70    -27.69     24.20
   25.3821     54.78     55.61    -27.84     24.20
   25.3923     54.04     55.52    -28.48     24.20
   25.4024     54.15     55.43    -28.29     24.20
   25.4126     54.84     55.34    -27.51     24.20
   25.4228     54.49     55.25    -27.77     24.20
   25.4329     54.21     55.16    -27.96     24.20
   25.4431     53.80     55.07    -28.28     24.20
   25.4533     54.40     54.98    -27.59     24.20
   25.4634     53.15     54.89    -28.75     24.20
   25.4736     54.95     54.80    -26.86     24.20
   25.4838     54.38     54.72    -27.34     24.20
   25.4939     54.98     54.63    -26.65     24.19
   25.5041     53.73     54.54    -27.81     24.19
   25.5143     54.16     54.45    -27.29     24.19
   25.5244     53.34     54.36    -28.03     24.19
   25.5346     54.80     54.27    -26.48     24.19
   25.5448     53.94     54.18    -27.25     24.19
   25.5549     53.45     54.10    -27.65     24.19
   25.5651     53.10     54.01    -27.91     24.19
   25.5752     53.85     53.92    -27.08     24.19
   25.5854     54.13     53.83    -26.71     24.19
   25.5956     53.26     53.75    -27.49     24.19
   25.6057     53.17     53.66    -27.49     24.19
   25.6159     53.99     53.57    -26.59     24.19
   25.6261     52.95     53.48    -27.54     24.19
   25.6362     53.50     53.40    -26.90     24.19
   25.6464     54.15     53.31    -26.17     24.19
   25.6566     53.48     53.22    -26.75     24.18
   25.6667     51.90     53.14    -28.24     24.18
   25.6769     53.31     53.05    -26.75     24.18
   25.6871     54.00     52.97    -25.97     24.18
   25.6972     53.85     52.88    -26.03     24.18
   25.7074     52.96     52.79    -26.84     24.18
   25.7175     54.04     52.71    -25.67     24.18
   25.7277     52.71     52.62    -26.92     24.18
   25.7379     52.68     52.54    -26.86     24.18
   25.7480     52.68     52.45    -26.78     24.18
   25.7582     54.13     52.37    -25.24     24.18
   25.7684     52.92     52.28    -26.37     24.18
   25.7785     52.64     52.20    -26.56     24.18
   25.7887     53.30     52.12    -25.82     24.18
   25.7989     52.25     52.03    -26.78     24.18
   25.8090     51.91     51.95    -27.04     24.18
   25.8192     52.34     51.86    -26.53     24.17
   25.8294     52.92     51.78    -25.86     24.17
   25.8395     52.78     51.70    -25.92     24.17
   25.8497     51.66     51.61    -26.96     24.17
   25.8599     52.12     51.53    -26.41     24.17
   25.8700     51.34     51.45    -27.11     24.17
   25.8802     50.93     51.36    -27.44     24.17
   25.8903     52.49     51.28    -25.79     24.17
   25.9005     52.76     51.20    -25.44     24.17
   25.9107     51.79     51.12    -26.33     24.17
   25.9208     50.07     51.03    -27.97     24.17
   25.9310     52.46     50.95    -25.50     24.17
   25.9412     51.47     50.87    -26.40     24.17
   25.9513     51.43     50.79    -26.36     24.17
   25.9615     52.16     50.71    -25.55     24.17
   25.9717     52.37     50.63    -25.26     24.17
   25.9818     52.97     50.55    -24.58     24.16
   25.9920     51.78     50.46    -25.69     24.16
   26.0022     51.90     50.38    -25.49     24.16
   26.0123     51.51     50.30    -25.80     24.16
   26.0225     50.68     50.22    -26.55     24.16
   26.0326     50.01     50.14    -27.14     24.16
   26.0428     51.17     50.06    -25.90     24.16
   26.0530     50.48     49.98    -26.51     24.16
   26.0631     50.51     49.90    -26.40     24.16
   26.0733     50.34     49.82    -26.49     24.16
   26.0835     50.77     49.75    -25.98     24.16
   26.0936     50.62     49.67    -26.05     24.16
   26.1038     50.26     49.59    -26.33     24.16
   26.1140     49.98     49.51    -26.53     24.16
   26.1241     50.21     49.43    -26.23     24.16
   26.1343     50.93     49.35    -25.43     24.16
   26.1445     50.90     49.28    -25.38     24.15
   26.1546     50.43     49.20    -25.77     24.15
   26.1648     49.55     49.12    -26.58     24.15
   26.1750     50.29     49.04    -25.76     24.15
   26.1851     49.98     48.97    -25.99     24.15
   26.1953     50.62     48.89    -25.28     24.15
   26.2054     50.48     48.82    -25.34     24.15
   26.2156     49.68     48.74    -26.06     24.15
   26.2258     49.31     48.66    -26.36     24.15
   26.2359     50.02     48.59    -25.57     24.15
   26.2461     49.72     48.51    -25.80     24.15
   26.2563     51.23     48.44    -24.21     24.15
   26.2664     49.73     48.36    -25.64     24.15
   26.2766     48.55     48.29    -26.74     24.15
   26.2868     49.91     48.21    -25.31     24.15
   26.2969     50.29     48.14    -24.85     24.15
   26.3071     49.74     48.07    -25.33     24.14
   26.3173     49.46     47.99    -25.54     24.14
   26.3274     49.66     47.92    -25.26     24.14
   26.3376     50.17     47.85    -24.68     24.14
   26.3477     49.66     47.77    -25.12     24.14
   26.3579     48.55     47.70    -26.16     24.14
   26.3681     49.57     47.63    -25.06     24.14
   26.3782     49.09     47.56    -25.47     24.14
   26.3884     48.80     47.49    -25.69     24.14
   26.3986     49.12     47.42    -25.30     24.14
   26.4087     48.78     47.35    -25.57     24.14
   26.4189     49.10     47.27    -25.18     24.14
   26.4291     48.89     47.20    -25.32     24.14
   26.4392     49.06     47.14    -25.08     24.14
   26.4494     49.25     47.07    -24.82     24.14
   26.4596     48.63     47.00    -25.37     24.14
   26.4697     47.34     46.93    -26.59     24.13
   26.4799     48.62     46.86    -25.24     24.13
   26.4901     49.65     46.79    -24.15     24.13
   26.5002     48.91     46.72    -24.82     24.13
   26.5104     48.72     46.66    -24.94     24.13
   26.5205     48.84     46.59    -24.75     24.13
   26.5307     48.84     46.52    -24.69     24.13
   26.5409     47.41     46.46    -26.05     24.13
   26.5510     48.23     46.39    -25.17     24.13
   26.5612     47.77     46.33    -25.56     24.13
   26.5714     48.18     46.26    -25.09     24.13
   26.5815     48.35     46.20    -24.85     24.13
   26.5917     47.55     46.14    -25.59     24.13
   26.6019     48.04     46.07    -25.04     24.13
   26.6120     48.04     46.01    -24.97     24.13
   26.6222     48.02     45.95    -24.93     24.13
   26.6324     47.77     45.89    -25.12     24.12
   26.6425     47.49     45.83    -25.34     24.12
   26.6527     46.90     45.76    -25.87     24.12
   26.6628     47.30     45.71    -25.41     24.12
   26.6730     48.26     45.65    -24.39     24.12
   26.6832     46.93     45.59    -25.66     24.12
   26.6933     46.97     45.53    -25.56     24.12
   26.7035     48.04     45.47    -24.44     24.12
   26.7137     47.89     45.42    -24.53     24.12
   26.7238     48.34     45.36    -24.02     24.12
   26.7340     48.18     45.30    -24.13     24.12
   26.7442     47.93     45.25    -24.32     24.12
   26.7543     47.87     45.20    -24.33     24.12
   26.7645     46.93     45.14    -25.22     24.12
   26.7747     48.56     45.09    -23.54     24.12
   26.7848     48.23     45.04    -23.81     24.12
   26.7950     47.91     44.99    -24.08     24.11
   26.8052     48.17     44.94    -23.77     24.11
   26.8153     47.62     44.89    -24.28     24.11
   26.8255     47.07     44.85    -24.78     24.11
   26.8356     47.86     44.80    -23.94     24.11
   26.8458     48.15     44.75    -23.61     24.11
   26.8560     47.00     44.71    -24.71     24.11
   26.8661     48.21     44.67    -23.46     24.11
   26.8763     47.48     44.62    -24.15     24.11
   26.8865     47.60     44.58    -23.99     24.11
   26.8966     46.92     44.54    -24.63     24.11
   26.9068     47.70     44.50    -23.81     24.11
   26.9170     46.54     44.47    -24.93     24.11
   26.9271     47.39     44.43    -24.05     24.11
   26.9373     46.97     44.40    -24.43     24.11
   26.9475     46.63     44.36    -24.74     24.11
   26.9576     47.23     44.33    -24.11     24.10
   26.9678     48.04     44.30    -23.27     24.10
   26.9779     45.98     44.27    -25.30     24.10
   26.9881     46.98     44.25    -24.27     24.10
   26.9983     47.15     44.22    -24.08     24.10
   27.0084     47.94     44.20    -23.26     24.10
   27.0186     47.25     44.18    -23.93     24.10
   27.0288     47.77     44.16    -23.39     24.10
   27.0389     47.26     44.14    -23.88     24.10
   27.0491     46.87     44.12    -24.26     24.10
   27.0593     47.35     44.11    -23.76     24.10
   27.0694     47.05     44.10    -24.05     24.10
   27.0796     47.98     44.09    -23.11     24.10
   27.0898     46.38     44.08    -24.71     24.10
   27.0999     47.71     44.08    -23.37     24.10
   27.1101     46.85     44.07    -24.23     24.10
   27.1202     46.76     44.07    -24.32     24.09
   27.1304     46.57     44.07    -24.51     24.09
   27.1406     47.80     44.08    -23.28     24.09
   27.1507     46.02     44.09    -25.07     24.09
   27.1609     47.73     44.10    -23.37     24.09
   27.1711     45.47     44.11    -25.64     24.09
   27.1812     46.24     44.12    -24.89     24.09
   27.1914     46.66     44.14    -24.48     24.09
   27.2016     46.71     44.16    -24.46     24.09
   27.2117     47.47     44.19    -23.72     24.09
   27.2219     46.46     44.21    -24.76     24.09
   27.2321     46.41     44.24    -24.84     24.09
   27.2422     46.29     44.28    -24.99     24.09
   27.2524     46.39     44.31    -24.93     24.09
   27.2626     46.27     44.35    -25.09     24.09
   27.2727     46.35     44.40    -25.05     24.09
   27.2829     46.87     44.44    -24.58     24.08
   27.2930     47.10     44.49    -24.40     24.08
   27.3032     47.29     44.55    -24.26     24.08
   27.3134     46.97     44.61    -24.64     24.08
   27.3235     47.79     44.67    -23.88     24.08
   27.3337     47.49     44.74    -24.25     24.08
   27.3439     46.79     44.81    -25.02     24.08
   27.3540     47.06     44.88    -24.82     24.08
   27.3642     46.25     44.96    -25.71     24.08
   27.3744     47.12     45.04    -24.92     24.08
   27.3845     46.45     45.13    -25.68     24.08
   27.3947     47.29     45.22    -24.93     24.08
   27.4049     47.82     45.31    -24.50     24.08
   27.4150     47.84     45.41    -24.58     24.08
   27.4252     47.61     45.52    -24.91     24.08
   27.4353     47.40     45.63    -25.23     24.08
   27.4455     46.99     45.74    -25.75     24.07
   27.4557     46.72     45.86    -26.14     24.07
   27.4658     47.05     45.98    -25.94     24.07
   27.4760     47.42     46.11    -25.69     24.07
   27.4862     48.15     46.24    -25.10     24.07
   27.4963     47.96     46.38    -25.42     24.07
   27.5065     47.58     46.52    -25.95     24.07
   27.5167     48.12     46.67    -25.56     24.07
   27.5268     47.54     46.82    -26.29     24.07
   27.5370     47.99     46.98    -26.00     24.07
   27.5472     48.12     47.15    -26.03     24.07
   27.5573     47.87     47.31    -26.45     24.07
   27.5675     49.55     47.49    -24.94     24.07
   27.5777     47.74     47.67    -26.93     24.07
   27.5878     48.87     47.85    -25.98     24.07
   27.5980     47.62     48.04    -27.42     24.07
   27.6081     48.05     48.23    -27.18     24.06
   27.6183     47.96     48.43    -27.47     24.06
   27.6285     47.71     48.63    -27.93     24.06
   27.6386     48.29     48.84    -27.56     24.06
   27.6488     48.35     49.06    -27.71     24.06
   27.6590     48.99     49.28    -27.29     24.06
   27.6691     48.91     49.50    -27.59     24.06
   27.6793     49.13     49.73    -27.61     24.06
   27.6895     49.63     49.97    -27.34     24.06
   27.6996     49.59     50.20    -27.62     24.06
   27.7098     49.74     50.45    -27.71     24.06
   27.7200     49.80     50.70    -27.90     24.06
   27.7301     49.96     50.95    -28.00     24.06
   27.7403     50.38     51.21    -27.84     24.06
   27.7504     50.21     51.47    -28.27     24.06
   27.7606     51.69     51.74    -27.06     24.06
   27.7708     50.70     52.02    -28.32     24.05
   27.7809     51.26     52.29    -28.04     24.05
   27.7911     52.48     52.57    -27.10     24.05
   27.8013     50.96     52.86    -28.90     24.05
   27.8114     50.78     53.15    -29.37     24.05
   27.8216     51.98     53.44    -28.47     24.05
   27.8318     53.58     53.74    -27.16     24.05
   27.8419     51.62     54.04    -29.42     24.05
   27.8521     53.23     54.34    -28.12     24.05
   27.8623     53.52     54.65    -28.13     24.05
   27.8724     52.88     54.96    -29.08     24.05
   27.8826     53.33     55.27    -28.95     24.05
   27.8928     54.41     55.59    -28.18     24.05
   27.9029     53.71     55.91    -29.20     24.05
   27.9131     53.88     56.23    -29.35     24.05
   27.9232     55.24     56.55    -28.31     24.05
   27.9334     55.44     56.88    -28.44     24.04
   27.9436     54.23     57.20    -29.98     24.04
   27.9537     55.24     57.53    -29.29     24.04
   27.9639     55.26     57.86    -29.61     24.04
   27.9741     56.59     58.19    -28.61     24.04
   27.9842     56.20     58.52    -29.33     24.04
   27.9944     56.80     58.86    -29.06     24.04
   28.0046     56.48     59.19    -29.72     24.04
   28.0147     57.15     59.52    -29.38     24.04
   28.0249     57.60     59.86    -29.26     24.04
   28.0351     57.65     60.19    -29.55     24.04
   28.0452     58.43     60.52    -29.10     24.04
   28.0554     58.57     60.85    -29.29     24.04
   28.0655     57.84     61.18    -30.35     24.04
   28.0757     60.40     61.51    -28.12     24.04
   28.0859     59.99     61.84    -28.86     24.04
   28.0960     60.00     62.17    -29.17     24.03
   28.1062     60.50     62.49    -28.99     24.03
   28.1164     61.84     62.81    -27.98     24.03
   28.1265     61.63     63.13    -28.50     24.03
   28.1367     62.13     63.45    -28.32     24.03
   28.1469     62.54     63.76    -28.22     24.03
   28.1570     63.95     64.06    -27.12     24.03
   28.1672     63.67     64.37    -27.70     24.03
   28.1774     64.22     64.67    -27.46     24.03
   28.1875     63.38     64.97    -28.59     24.03
   28.1977     63.92     65.26    -28.34     24.03
   28.2079     64.52     65.55    -28.03     24.03
   28.2180     66.10     65.82    -26.73     24.03
   28.2282     66.99     66.10    -26.11     24.03
   28.2383     66.74     66.37    -26.63     24.03
   28.2485     66.05     66.63    -27.59     24.03
   28.2587     66.43     66.89    -27.46     24.02
   28.2688     67.74     67.14    -26.40     24.02
   28.2790     67.17     67.38    -27.22     24.02
   28.2892     68.30     67.62    -26.32     24.02
   28.2993     68.30     67.85    -26.55     24.02
   28.3095     68.09     68.07    -26.98     24.02
   28.3197     70.32     68.28    -24.97     24.02
   28.3298     71.02     68.49    -24.47     24.02
   28.3400     71.04     68.69    -24.65     24.02
   28.3502     70.42     68.87    -25.46     24.02
   28.3603     71.10     69.05    -24.96     24.02
   28.3705     71.93     69.22    -24.30     24.02
   28.3806     71.42     69.38    -24.97     24.02
   28.3908     72.45     69.54    -24.09     24.02
   28.4010     71.24     69.68    -25.44     24.02
   28.4111     71.61     69.81    -25.20     24.01
   28.4213     72.51     69.93    -24.43     24.01
   28.4315     72.70     70.05    -24.35     24.01
   28.4416     72.43     70.15    -24.72     24.01
   28.4518     72.11     70.24    -25.13     24.01
   28.4620     72.51     70.32    -24.82     24.01
   28.4721     74.18     70.39    -23.22     24.01
   28.4823     73.80     70.45    -23.66     24.01
   28.4925     72.77     70.50    -24.74     24.01
   28.5026     71.51     70.54    -26.04     24.01
   28.5128     73.91     70.57    -23.67     24.01
   28.5230     73.24     70.59    -24.35     24.01
   28.5331     73.79     70.60    -23.81     24.01
   28.5433     73.94     70.59    -23.66     24.01
   28.5534     71.59     70.58    -25.99     24.01
   28.5636     72.72     70.55    -24.84     24.01
   28.5738     73.17     70.52    -24.35     24.00
   28.5839     73.53     70.47    -23.94     24.00
   28.5941     71.91     70.41    -25.51     24.00
   28.6043     74.40     70.34    -22.95     24.00
   28.6144     73.40     70.26    -23.87     24.00
   28.6246     73.10     70.17    -24.08     24.00
   28.6348     71.93     70.07    -25.15     24.00
   28.6449     72.52     69.97    -24.45     24.00
   28.6551     71.51     69.85    -25.34     24.00
   28.6653     70.79     69.71    -25.93     24.00
   28.6754     71.02     69.58    -25.56     24.00
   28.6856     71.26     69.43    -25.17     24.00
   28.6957     71.70     69.27    -24.57     24.00
   28.7059     69.27     69.10    -26.83     24.00
   28.7161     70.41     68.92    -25.51     24.00
   28.7262     69.45     68.73    -26.29     24.00
   28.7364     69.41     68.54    -26.13     23.99
   28.7466     68.51     68.33    -26.83     23.99
   28.7567     69.42     68.12    -25.71     23.99
   28.7669     68.23     67.90    -26.68     23.99
   28.7771     69.24     67.67    -25.44     23.99
   28.7872     68.17     67.44    -26.27     23.99
   28.7974     67.18     67.20    -27.02     23.99
   28.8076     65.63     66.94    -28.32     23.99
   28.8177     67.77     66.69    -25.92     23.99
   28.8279     67.10     66.42    -26.33     23.99
   28.8381     66.37     66.15    -26.79     23.99
   28.8482     65.90     65.88    -26.98     23.99
   28.8584     64.98     65.60    -27.62     23.99
   28.8685     64.70     65.31    -27.61     23.99
   28.8787     64.41     65.02    -27.61     23.99
   28.8889     64.32     64.72    -27.40     23.99
   28.8990     62.57     64.42    -28.85     23.98
   28.9092     62.33     64.11    -28.78     23.98
   28.9194     63.22     63.80    -27.58     23.98
   28.9295     63.26     63.48    -27.23     23.98
   28.9397     62.00     63.16    -28.17     23.98
   28.9499     61.82     62.84    -28.03     23.98
   28.9600     60.90     62.52    -28.62     23.98
   28.9702     60.68     62.19    -28.51     23.98
   28.9804     59.51     61.86    -29.35     23.98
   28.9905     60.04     61.53    -28.49     23.98
   29.0007     59.62     61.19    -28.57     23.98
   29.0108     59.55     60.86    -28.31     23.98
   29.0210     59.57     60.52    -27.95     23.98
   29.0312     58.91     60.18    -28.27     23.98
   29.0413     58.24     59.84    -28.60     23.98
   29.0515     57.95     59.50    -28.55     23.98
   29.0617     57.99     59.15    -28.17     23.97
   29.0718     57.72     58.81    -28.10     23.97
   29.0820     57.15     58.47    -28.32     23.97
   29.0922     56.59     58.13    -28.54     23.97
   29.1023     55.87     57.79    -28.92     23.97
   29.1125     55.71     57.45    -28.74     23.97
   29.1227     54.50     57.11    -29.61     23.97
   29.1328     55.11     56.77    -28.66     23.97
   29.1430     54.90     56.43    -28.54     23.97
   29.1531     54.41     56.10    -28.69     23.97
   29.1633     52.61     55.76    -30.16     23.97
   29.1735     55.01     55.43    -27.42     23.97
   29.1836     54.39     55.10    -27.72     23.97
   29.1938     52.95     54.77    -28.83     23.97
   29.2040     54.31     54.45    -27.14     23.97
   29.2141     52.49     54.13    -28.64     23.97
   29.2243     52.04     53.81    -28.77     23.96
   29.2345     51.86     53.49    -28.63     23.96
   29.2446     52.38     53.18    -27.80     23.96
   29.2548     51.71     52.86    -28.16     23.96
   29.2650     51.96     52.55    -27.60     23.96
   29.2751     51.15     52.25    -28.11     23.96
   29.2853     51.41     51.95    -27.54     23.96
   29.2955     51.10     51.65    -27.56     23.96
   29.3056     50.43     51.36    -27.93     23.96
   29.3158     50.48     51.07    -27.59     23.96
   29.3259     49.91     50.79    -27.88     23.96
   29.3361     50.16     50.50    -27.35     23.96
   29.3463     49.15     50.22    -28.08     23.96
   29.3564     49.39     49.95    -27.57     23.96
   29.3666     49.91     49.68    -26.78     23.96
   29.3768     48.97     49.42    -27.45     23.96
   29.3869     49.24     49.16    -26.92     23.95
   29.3971     48.96     48.90    -26.94     23.95
   29.4073     47.54     48.65    -28.11     23.95
   29.4174     48.66     48.40    -26.74     23.95
   29.4276     48.65     48.15    -26.51     23.95
   29.4378     47.35     47.91    -27.57     23.95
   29.4479     48.31     47.68    -26.38     23.95
   29.4581     47.43     47.45    -27.02     23.95
   29.4682     47.30     47.23    -26.93     23.95
   29.4784     47.08     47.00    -26.93     23.95
   29.4886     46.78     46.79    -27.01     23.95
   29.4987     45.72     46.57    -27.86     23.95
   29.5089     47.82     46.37    -25.55     23.95
   29.5191     46.66     46.16    -26.51     23.95
   29.5292     46.39     45.96    -26.58     23.95
   29.5394     46.29     45.77    -26.48     23.95
   29.5496     45.77     45.58    -26.81     23.94
   29.5597     45.54     45.39    -26.85     23.94
   29.5699     45.85     45.21    -26.36     23.94
   29.5801     45.30     45.03    -26.73     23.94
   29.5902     44.89     44.86    -26.97     23.94
   29.6004     45.23     44.69    -26.46     23.94
   29.6106     45.15     44.52    -26.37     23.94
   29.6207     44.82     44.36    -26.54     23.94
   29.6309     45.20     44.20    -26.00     23.94
   29.6410     45.24     44.05    -25.81     23.94
   29.6512     44.33     43.90    -26.57     23.94
   29.6614     44.08     43.75    -26.67     23.94
   29.6715     46.21     43.61    -24.40     23.94
   29.6817     44.10     43.47    -26.37     23.94
   29.6919     44.09     43.33    -26.24     23.94
   29.7020     43.87     43.20    -26.33     23.94
   29.7122     42.85     43.07    -27.22     23.93
   29.7224     43.94     42.94    -26.01     23.93
   29.7325     44.49     42.82    -25.33     23.93
   29.7427     44.20     42.70    -25.50     23.93
   29.7529     44.09     42.58    -25.50     23.93
   29.7630     44.20     42.47    -25.28     23.93
   29.7732     44.09     42.36    -25.27     23.93
   29.7833     43.29     42.25    -25.97     23.93
   29.7935     43.82     42.15    -25.33     23.93
   29.8037     44.29     42.05    -24.76     23.93
   29.8138     43.39     41.95    -25.56     23.93
   29.8240     43.87     41.85    -24.98     23.93
   29.8342     42.26     41.76    -26.50     23.93
   29.8443     41.70     41.66    -26.97     23.93
   29.8545     42.91     41.57    -25.67     23.93
   29.8647     41.96     41.49    -26.53     23.93
   29.8748     43.11     41.40    -25.30     23.92
   29.8850     42.74     41.32    -25.58     23.92
   29.8952     43.67     41.24    -24.57     23.92
   29.9053     43.13     41.16    -25.03     23.92
   29.9155     43.27     41.08    -24.81     23.92
   29.9257     41.77     41.00    -26.24     23.92
   29.9358     43.12     40.93    -24.82     23.92
   29.9460     43.76     40.86    -24.10     23.92
   29.9561     42.16     40.79    -25.63     23.92
   29.9663     42.36     40.72    -25.36     23.92
   29.9765     42.74     40.65    -24.92     23.92
   29.9866     42.29     40.59    -25.30     23.92
   29.9968     43.04     40.52    -24.49     23.92
   30.0070     42.59     40.46    -24.87     23.92
   30.0171     42.39     40.40    -25.01     23.92
   30.0273     42.21     40.33    -25.13     23.92
   30.0375     40.77     40.27    -26.51     23.91
   30.0476     41.87     40.22    -25.35     23.91
   30.0578     41.09     40.16    -26.07     23.91
   30.0680     41.68     40.10    -25.42     23.91
   30.0781     42.35     40.05    -24.70     23.91
   30.0883     42.44     39.99    -24.55     23.91
   30.0984     41.59     39.94    -25.35     23.91
   30.1086     41.10     39.88    -25.79     23.91
   30.1188     41.96     39.83    -24.87     23.91
   30.1289     42.40     39.78    -24.38     23.91
   30.1391     40.96     39.73    -25.77     23.91
   30.1493     40.68     39.67    -26.00     23.91
   30.1594     41.75     39.62    -24.88     23.91
   30.1696     40.73     39.57    -25.85     23.91
   30.1798     41.38     39.52    -25.15     23.91
   30.1899     41.41     39.48    -25.07     23.91
   30.2001     39.85     39.43    -26.58     23.90
   30.2103     41.18     39.38    -25.20     23.90
   30.2204     40.80     39.33    -25.54     23.90
   30.2306     40.66     39.28    -25.63     23.90
   30.2408     40.08     39.24    -26.16     23.90
   30.2509     39.93     39.19    -26.26     23.90
   30.2611     39.45     39.14    -26.70     23.90
   30.2712     39.99     39.10    -26.11     23.90
   30.2814     39.97     39.05    -26.08     23.90
   30.2916     39.08     39.00    -26.93     23.90
   30.3017     40.29     38.96    -25.67     23.90
   30.3119     40.21     38.91    -25.71     23.90
   30.3221     38.96     38.87    -26.91     23.90
   30.3322     39.35     38.82    -26.47     23.90
   30.3424     39.86     38.77    -25.92     23.90
   30.3526     38.66     38.73    -27.07     23.90
   30.3627     39.51     38.68    -26.18     23.89
   30.3729     39.88     38.64    -25.76     23.89
   30.3831     38.20     38.59    -27.39     23.89
   30.3932     39.15     38.54    -26.40     23.89
   30.4034     38.74     38.50    -26.76     23.89
   30.4135     39.73     38.45    -25.73     23.89
   30.4237     38.80     38.41    -26.61     23.89
   30.4339     39.21     38.36    -26.15     23.89
   30.4440     38.07     38.31    -27.25     23.89
   30.4542     38.06     38.27    -27.21     23.89
   30.4644     37.25     38.22    -27.98     23.89
   30.4745     38.14     38.18    -27.04     23.89
   30.4847     37.90     38.13    -27.23     23.89
   30.4949     38.08     38.08    -27.01     23.89
   30.5050     37.74     38.04    -27.30     23.89
   30.5152     36.98     37.99    -28.01     23.89
   30.5254     37.54     37.94    -27.41     23.88
   30.5355     36.62     37.89    -28.28     23.88
   30.5457     37.60     37.85    -27.25     23.88
   30.5559     36.84     37.80    -27.96     23.88
   30.5660     36.15     37.75    -28.61     23.88
   30.5762     36.55     37.70    -28.16     23.88
   30.5863     36.02     37.66    -28.64     23.88
   30.5965     36.01     37.61    -28.60     23.88
   30.6067     36.46     37.56    -28.10     23.88
   30.6168     36.09     37.51    -28.43     23.88
   30.6270     37.07     37.46    -27.40     23.88
   30.6372     35.93     37.41    -28.49     23.88
   30.6473     36.34     37.37    -28.03     23.88
   30.6575     35.71     37.32    -28.61     23.88
   30.6677     36.38     37.27    -27.89     23.88
   30.6778     36.12     37.22    -28.10     23.88
   30.6880     35.93     37.17    -28.24     23.87
   30.6982     35.51     37.12    -28.61     23.87
   30.7083     35.88     37.07    -28.20     23.87
   30.7185     35.04     37.02    -28.99     23.87
   30.7286     35.62     36.97    -28.36     23.87
   30.7388     35.30     36.92    -28.63     23.87
   30.7490     35.61     36.87    -28.27     23.87
   30.7591     34.62     36.82    -29.21     23.87
   30.7693     35.65     36.77    -28.13     23.87
   30.7795     34.63     36.72    -29.10     23.87
   30.7896     35.88     36.67    -27.80     23.87
   30.7998     35.65     36.62    -27.97     23.87
   30.8100     34.71     36.57    -28.86     23.87
   30.8201     35.65     36.52    -27.87     23.87
   30.8303     36.08     36.47    -27.39     23.87
   30.8405     34.48     36.42    -28.94     23.87
   30.8506     34.96     36.37    -28.41     23.86
   30.8608     34.70     36.32    -28.62     23.86
   30.8710     34.96     36.27    -28.31     23.86
   30.8811     35.36     36.21    -27.86     23.86
   30.8913     34.33     36.16    -28.84     23.86
   30.9014     33.65     36.11    -29.47     23.86
   30.9116     34.29     36.06    -28.78     23.86
   30.9218     34.13     36.01    -28.88     23.86
   30.9319     35.43     35.96    -27.53     23.86
   30.9421     34.09     35.91    -28.82     23.86
   30.9523     35.18     35.86    -27.68     23.86
   30.9624     34.48     35.81    -28.33     23.86
   30.9726     34.90     35.76    -27.86     23.86
   30.9828     34.40     35.71    -28.31     23.86
   30.9929     33.67     35.65    -28.99     23.86
   31.0031     34.20     35.60    -28.41     23.86
   31.0133     34.55     35.55    -28.01     23.85
   31.0234     32.77     35.50    -29.74     23.85
   31.0336     34.09     35.45    -28.37     23.85
   31.0437     34.41     35.40    -28.00     23.85
   31.0539     33.12     35.35    -29.23     23.85
   31.0641     33.57     35.30    -28.73     23.85
   31.0742     33.39     35.25    -28.86     23.85
   31.0844     33.20     35.20    -29.00     23.85
   31.0946     33.76     35.15    -28.39     23.85
   31.1047     33.35     35.10    -28.75     23.85
   31.1149     32.99     35.05    -29.06     23.85
   31.1251     33.97     35.00    -28.03     23.85
   31.1352     33.90     34.95    -28.05     23.85
   31.1454     32.87     34.90    -29.03     23.85
   31.1556     32.98     34.85    -28.88     23.85
   31.1657     33.21     34.80    -28.60     23.85
   31.1759     33.59     34.75    -28.17     23.84
   31.1860     33.52     34.70    -28.19     23.84
   31.1962     33.72     34.66    -27.94     23.84
   31.2064     32.61     34.61    -29.00     23.84
   31.2165     33.60     34.56    -27.96     23.84
   31.2267     33.82     34.51    -27.70     23.84
   31.2369     33.12     34.46    -28.35     23.84
   31.2470     32.91     34.42    -28.51     23.84
   31.2572     33.69     34.37    -27.68     23.84
   31.2674     32.88     34.32    -28.44     23.84
   31.2775     32.37     34.27    -28.91     23.84
   31.2877     32.73     34.23    -28.50     23.84
   31.2979     32.83     34.18    -28.35     23.84
   31.3080     32.76     34.13    -28.38     23.84
   31.3182     32.25     34.09    -28.84     23.84
   31.3284     32.64     34.04    -28.41     23.84
   31.3385     33.01     34.00    -27.99     23.83
   31.3487     33.85     33.95    -27.11     23.83
   31.3588     33.07     33.91    -27.84     23.83
   31.3690     31.99     33.86    -28.88     23.83
   31.3792     32.94     33.82    -27.88     23.83
   31.3893     33.05     33.77    -27.73     23.83
   31.3995     32.54     33.73    -28.19     23.83
   31.4097     32.76     33.69    -27.93     23.83
   31.4198     32.37     33.64    -28.28     23.83
   31.4300     32.59     33.60    -28.02     23.83
   31.4402     31.56     33.56    -29.00     23.83
   31.4503     32.89     33.52    -27.63     23.83
   31.4605     33.19     33.48    -27.29     23.83
   31.4707     31.82     33.43    -28.62     23.83
   31.4808     31.85     33.39    -28.55     23.83
   31.4910     32.50     33.35    -27.86     23.83
   31.5011     32.60     33.31    -27.72     23.82
   31.5113     32.59     33.27    -27.69     23.82
   31.5215     32.76     33.23    -27.48     23.82
   31.5316     32.66     33.19    -27.54     23.82
   31.5418     32.49     33.15    -27.67     23.82
   31.5520     32.83     33.12    -27.29     23.82
   31.5621     32.80     33.08    -27.28     23.82
   31.5723     31.43     33.04    -28.61     23.82
   31.5825     32.59     33.00    -27.42     23.82
   31.5926     32.62     32.97    -27.35     23.82
   31.6028     31.96     32.93    -27.97     23.82
   31.6130     32.21     32.89    -27.69     23.82
   31.6231     32.98     32.86    -26.88     23.82
   31.6333     32.31     32.82    -27.51     23.82
   31.6435     32.77     32.79    -27.02     23.82
   31.6536     32.32     32.75    -27.44     23.82
   31.6638     32.18     32.72    -27.54     23.81
   31.6739     32.17     32.68    -27.52     23.81
   31.6841     33.39     32.65    -26.26     23.81
   31.6943     32.20     32.62    -27.42     23.81
   31.7044     31.76     32.59    -27.83     23.81
   31.7146     31.98     32.55    -27.58     23.81
   31.7248     31.91     32.52    -27.62     23.81
   31.7349     32.09     32.49    -27.40     23.81
   31.7451     32.69     32.46    -26.77     23.81
   31.7553     31.75     32.43    -27.68     23.81
   31.7654     31.53     32.40    -27.87     23.81
   31.7756     32.32     32.37    -27.05     23.81
   31.7858     32.12     32.34    -27.22     23.81
   31.7959     32.18     32.31    -27.14     23.81
   31.8061     31.68     32.28    -27.61     23.81
   31.8162     32.35     32.26    -26.91     23.81
   31.8264     31.73     32.23    -27.50     23.80
   31.8366     31.71     32.20    -27.50     23.80
   31.8467     32.21     32.18    -26.97     23.80
   31.8569     31.80     32.15    -27.35     23.80
   31.8671     32.13     32.12    -27.00     23.80
   31.8772     32.05     32.10    -27.05     23.80
   31.8874     32.26     32.08    -26.82     23.80
   31.8976     32.04     32.05    -27.01     23.80
   31.9077     32.34     32.03    -26.69     23.80
   31.9179     32.49     32.00    -26.52     23.80
   31.9281     32.20     31.98    -26.79     23.80
   31.9382     32.52     31.96    -26.44     23.80
   31.9484     31.36     31.94    -27.58     23.80
   31.9586     32.56     31.92    -26.36     23.80
   31.9687     32.25     31.89    -26.65     23.80
   31.9789     32.52     31.87    -26.36     23.79
   31.9890     31.73     31.85    -27.13     23.79
   31.9992     32.60     31.83    -26.24     23.79
   32.0094     32.46     31.81    -26.36     23.79
   32.0195     31.79     31.80    -27.01     23.79
   32.0297     32.29     31.78    -26.49     23.79
   32.0399     32.36     31.76    -26.40     23.79
   32.0500     33.49     31.74    -25.26     23.79
   32.0602     31.71     31.72    -27.02     23.79
   32.0704     32.01     31.71    -26.70     23.79
   32.0805     32.97     31.69    -25.73     23.79
   32.0907     32.14     31.68    -26.54     23.79
   32.1009     32.90     31.66    -25.76     23.79
   32.1110     33.34     31.65    -25.31     23.79
   32.1212     32.72     31.63    -25.91     23.79
   32.1313     32.79     31.62    -25.83     23.79
   32.1415     33.77     31.60    -24.84     23.78
   32.1517     32.94     31.59    -25.65     23.78
   32.1618     32.62     31.58    -25.96     23.78
   32.1720     31.69     31.56    -26.88     23.78
   32.1822     32.79     31.55    -25.77     23.78
   32.1923     34.28     31.54    -24.26     23.78
   32.2025     33.16     31.53    -25.37     23.78
   32.2127     31.86     31.52    -26.66     23.78
   32.2228     32.87     31.51    -25.64     23.78
   32.2330     33.03     31.50    -25.47     23.78
   32.2432     32.96     31.49    -25.53     23.78
   32.2533     32.50     31.48    -25.98     23.78
   32.2635     33.24     31.47    -25.23     23.78
   32.2737     32.98     31.46    -25.48     23.78
   32.2838     32.61     31.45    -25.84     23.78
   32.2940     33.35     31.44    -25.09     23.78
   32.3041     33.01     31.43    -25.43     23.77
   32.3143     33.02     31.42    -25.41     23.77
   32.3245     33.12     31.42    -25.30     23.77
   32.3346     33.27     31.41    -25.14     23.77
   32.3448     33.09     31.40    -25.32     23.77
   32.3550     33.33     31.40    -25.07     23.77
   32.3651     33.13     31.39    -25.27     23.77
   32.3753     32.66     31.39    -25.73     23.77
   32.3855     33.35     31.38    -25.03     23.77
   32.3956     32.90     31.37    -25.48     23.77
   32.4058     32.90     31.37    -25.47     23.77
   32.4160     33.07     31.36    -25.30     23.77
   32.4261     32.65     31.36    -25.71     23.77
   32.4363     33.18     31.36    -25.18     23.77
   32.4464     32.91     31.35    -25.45     23.77
   32.4566     31.92     31.35    -26.43     23.77
   32.4668     32.38     31.34    -25.97     23.76
   32.4769     33.15     31.34    -25.20     23.76
   32.4871     32.95     31.34    -25.39     23.76
   32.4973     33.57     31.34    -24.77     23.76
   32.5074     32.71     31.33    -25.63     23.76
   32.5176     32.51     31.33    -25.82     23.76
   32.5278     32.99     31.33    -25.34     23.76
   32.5379     33.42     31.33    -24.91     23.76
   32.5481     32.94     31.32    -25.39     23.76
   32.5583     33.57     31.32    -24.76     23.76
   32.5684     33.52     31.32    -24.81     23.76
   32.5786     33.91     31.32    -24.41     23.76
   32.5888     31.61     31.32    -26.71     23.76
   32.5989     32.93     31.32    -25.39     23.76
   32.6091     32.04     31.32    -26.28     23.76
   32.6192     33.52     31.32    -24.80     23.76
   32.6294     32.88     31.32    -25.44     23.75
   32.6396     32.39     31.32    -25.93     23.75
   32.6497     32.27     31.31    -26.05     23.75
   32.6599     32.35     31.31    -25.97     23.75
   32.6701     32.37     31.31    -25.95     23.75
   32.6802     33.56     31.31    -24.76     23.75
   32.6904     33.10     31.31    -25.22     23.75
   32.7006     32.58     31.31    -25.74     23.75
   32.7107     33.47     31.31    -24.85     23.75
   32.7209     33.52     31.31    -24.80     23.75
   32.7311     32.09     31.31    -26.23     23.75
   32.7412     32.23     31.31    -26.09     23.75
   32.7514     32.95     31.32    -25.37     23.75
   32.7615     31.77     31.32    -26.55     23.75
   32.7717     32.01     31.32    -26.31     23.75
   32.7819     32.69     31.32    -25.63     23.75
   32.7920     32.50     31.32    -25.82     23.74
   32.8022     33.53     31.32    -24.79     23.74
   32.8124     32.55     31.32    -25.77     23.74
   32.8225     33.24     31.32    -25.08     23.74
   32.8327     32.59     31.32    -25.73     23.74
   32.8429     32.79     31.32    -25.53     23.74
   32.8530     32.47     31.32    -25.85     23.74
   32.8632     31.59     31.32    -26.73     23.74
   32.8734     32.58     31.32    -25.74     23.74
   32.8835     31.97     31.32    -26.35     23.74
   32.8937     32.46     31.32    -25.86     23.74
   32.9039     32.54     31.32    -25.78     23.74
   32.9140     32.41     31.32    -25.91     23.74
   32.9242     32.27     31.32    -26.05     23.74
   32.9343     33.27     31.32    -25.05     23.74
   32.9445     32.35     31.32    -25.97     23.74
   32.9547     32.10     31.31    -26.22     23.73
   32.9648     32.71     31.31    -25.61     23.73
   32.9750     33.10     31.31    -25.22     23.73
   32.9852     32.32     31.31    -26.00     23.73
   32.9953     33.14     31.31    -25.17     23.73
   33.0055     32.85     31.31    -25.46     23.73
   33.0157     31.77     31.31    -26.54     23.73
   33.0258     32.64     31.31    -25.67     23.73
   33.0360     32.96     31.30    -25.35     23.73
   33.0462     32.49     31.30    -25.82     23.73
   33.0563     33.20     31.30    -25.10     23.73
   33.0665     32.92     31.30    -25.38     23.73
   33.0766     32.80     31.29    -25.50     23.73
   33.0868     33.35     31.29    -24.95     23.73
   33.0970     32.15     31.29    -26.14     23.73
   33.1071     32.77     31.29    -25.52     23.73
   33.1173     33.29     31.28    -25.00     23.72
   33.1275     32.53     31.28    -25.75     23.72
   33.1376     31.93     31.27    -26.35     23.72
   33.1478     32.45     31.27    -25.82     23.72
   33.1580     32.21     31.27    -26.06     23.72
   33.1681     32.64     31.26    -25.63     23.72
   33.1783     32.79     31.26    -25.47     23.72
   33.1885     32.81     31.25    -25.44     23.72
   33.1986     32.70     31.25    -25.55     23.72
   33.2088     32.62     31.24    -25.62     23.72
   33.2189     32.22     31.23    -26.02     23.72
   33.2291     32.28     31.23    -25.95     23.72
   33.2393     33.45     31.22    -24.77     23.72
   33.2494     32.71     31.21    -25.51     23.72
   33.2596     33.21     31.21    -25.00     23.72
   33.2698     33.01     31.20    -25.19     23.72
   33.2799     32.71     31.19    -25.49     23.71
   33.2901     33.15     31.18    -25.04     23.71
   33.3003     33.52     31.17    -24.66     23.71
   33.3104     32.24     31.17    -25.93     23.71
   33.3206     32.67     31.16    -25.49     23.71
   33.3308     33.07     31.15    -25.08     23.71
   33.3409     32.88     31.14    -25.26     23.71
   33.3511     32.61     31.13    -25.52     23.71
   33.3613     32.23     31.12    -25.89     23.71
   33.3714     32.68     31.11    -25.43     23.71
   33.3816     33.11     31.10    -24.99     23.71
   33.3917     33.10     31.08    -24.99     23.71
   33.4019     32.41     31.07    -25.67     23.71
   33.4121     33.09     31.06    -24.98     23.71
   33.4222     32.93     31.05    -25.12     23.71
   33.4324     32.66     31.04    -25.38     23.71
   33.4426     33.32     31.02    -24.71     23.70
   33.4527     32.79     31.01    -25.22     23.70
   33.4629     32.41     31.00    -25.59     23.70
   33.4731     32.51     30.98    -25.48     23.70
   33.4832     32.33     30.97    -25.64     23.70
   33.4934     32.02     30.95    -25.94     23.70
   33.5036     33.04     30.94    -24.90     23.70
   33.5137     32.14     30.92    -25.79     23.70
   33.5239     32.09     30.91    -25.82     23.70
   33.5340     32.58     30.89    -25.31     23.70
   33.5442     31.55     30.87    -26.33     23.70
   33.5544     31.52     30.86    -26.34     23.70
   33.5645     31.63     30.84    -26.21     23.70
   33.5747     32.42     30.82    -25.40     23.70
   33.5849     31.64     30.80    -26.17     23.70
   33.5950     31.99     30.78    -25.80     23.70
   33.6052     32.48     30.77    -25.29     23.69
   33.6154     31.65     30.75    -26.10     23.69
   33.6255     31.64     30.73    -26.09     23.69
   33.6357     31.61     30.71    -26.10     23.69
   33.6459     30.88     30.69    -26.81     23.69
   33.6560     31.40     30.67    -26.27     23.69
   33.6662     30.83     30.65    -26.82     23.69
   33.6764     31.27     30.62    -26.36     23.69
   33.6865     31.08     30.60    -26.53     23.69
   33.6967     31.42     30.58    -26.17     23.69
   33.7068     30.98     30.56    -26.58     23.69
   33.7170     30.93     30.54    -26.61     23.69
   33.7272     30.59     30.51    -26.93     23.69
   33.7373     30.51     30.49    -26.98     23.69
   33.7475     30.32     30.47    -27.15     23.69
   33.7577     30.86     30.44    -26.59     23.69
   33.7678     30.63     30.42    -26.79     23.68
   33.7780     30.88     30.39    -26.52     23.68
   33.7882     30.30     30.37    -27.07     23.68
   33.7983     29.98     30.34    -27.37     23.68
   33.8085     29.72     30.32    -27.60     23.68
   33.8187     29.71     30.29    -27.59     23.68
   33.8288     29.85     30.27    -27.42     23.68
   33.8390     29.66     30.24    -27.58     23.68
   33.8491     29.38     30.21    -27.84     23.68
   33.8593     29.34     30.19    -27.85     23.68
   33.8695     29.36     30.16    -27.80     23.68
   33.8796     29.72     30.13    -27.41     23.68
   33.8898     29.48     30.10    -27.63     23.68
   33.9000     29.93     30.07    -27.15     23.68
   33.9101     29.20     30.05    -27.85     23.68
   33.9203     28.17     30.02    -28.85     23.68
   33.9305     29.26     29.99    -27.73     23.67
   33.9406     28.80     29.96    -28.16     23.67
   33.9508     29.14     29.93    -27.79     23.67
   33.9610     28.36     29.90    -28.54     23.67
   33.9711     27.41     29.87    -29.46     23.67
   33.9813     28.44     29.84    -28.40     23.67
   33.9915     28.60     29.81    -28.21     23.67
   34.0016     27.87     29.78    -28.91     23.67
   34.0118     27.40     29.75    -29.35     23.67
   34.0219     27.57     29.71    -29.15     23.67
   34.0321     28.32     29.68    -28.37     23.67
   34.0423     28.19     29.65    -28.47     23.67
   34.0524     27.91     29.62    -28.71     23.67
   34.0626     28.48     29.59    -28.11     23.67
   34.0728     27.49     29.55    -29.07     23.67
   34.0829     27.29     29.52    -29.24     23.67
   34.0931     26.45     29.49    -30.04     23.66
   34.1033     27.90     29.46    -28.56     23.66
   34.1134     27.01     29.42    -29.42     23.66
   34.1236     27.61     29.39    -28.78     23.66
   34.1338     27.68     29.36    -28.68     23.66
   34.1439     27.67     29.32    -28.66     23.66
   34.1541     26.41     29.29    -29.88     23.66
   34.1642     27.37     29.25    -28.89     23.66
   34.1744     27.11     29.22    -29.11     23.66
   34.1846     27.05     29.19    -29.14     23.66
   34.1947     27.12     29.15    -29.03     23.66
   34.2049     27.48     29.12    -28.64     23.66
   34.2151     26.83     29.08    -29.26     23.66
   34.2252     26.96     29.05    -29.09     23.66
   34.2354     27.04     29.01    -28.98     23.66
   34.2456     26.78     28.98    -29.20     23.66
   34.2557     27.10     28.94    -28.84     23.65
   34.2659     26.36     28.91    -29.55     23.65
   34.2761     27.29     28.87    -28.58     23.65
   34.2862     27.44     28.83    -28.40     23.65
   34.2964     26.32     28.80    -29.48     23.65
   34.3066     26.62     28.76    -29.15     23.65
   34.3167     26.30     28.73    -29.43     23.65
   34.3269     26.37     28.69    -29.32     23.65
   34.3370     26.36     28.66    -29.30     23.65
   34.3472     27.24     28.62    -28.38     23.65
   34.3574     26.77     28.58    -28.82     23.65
   34.3675     26.63     28.55    -28.92     23.65
   34.3777     26.49     28.51    -29.02     23.65
   34.3879     26.80     28.47    -28.68     23.65
   34.3980     26.34     28.44    -29.10     23.65
   34.4082     26.74     28.40    -28.67     23.65
   34.4184     26.41     28.36    -28.96     23.64
   34.4285     26.60     28.33    -28.73     23.64
   34.4387     26.51     28.29    -28.79     23.64
   34.4489     25.62     28.26    -29.64     23.64
   34.4590     26.48     28.22    -28.74     23.64
   34.4692     26.30     28.18    -28.89     23.64
   34.4793     26.51     28.15    -28.64     23.64
   34.4895     26.24     28.11    -28.87     23.64
   34.4997     26.27     28.07    -28.81     23.64
   34.5098     26.46     28.04    -28.58     23.64
   34.5200     26.71     28.00    -28.29     23.64
   34.5302     26.04     27.96    -28.93     23.64
   34.5403     26.12     27.93    -28.81     23.64
   34.5505     25.54     27.89    -29.36     23.64
   34.5607     26.27     27.86    -28.59     23.64
   34.5708     25.88     27.82    -28.94     23.64
   34.5810     25.32     27.78    -29.47     23.63
   34.5912     26.33     27.75    -28.42     23.63
   34.6013     25.80     27.71    -28.92     23.63
   34.6115     25.32     27.67    -29.36     23.63
   34.6217     25.07     27.64    -29.57     23.63
   34.6318     25.69     27.60    -28.92     23.63
   34.6420     25.30     27.57    -29.27     23.63
   34.6521     25.77     27.53    -28.77     23.63
   34.6623     26.22     27.50    -28.28     23.63
   34.6725     25.46     27.46    -29.00     23.63
   34.6826     26.45     27.43    -27.98     23.63
   34.6928     25.52     27.39    -28.87     23.63
   34.7030     25.84     27.36    -28.52     23.63
   34.7131     25.77     27.32    -28.55     23.63
   34.7233     25.87     27.29    -28.42     23.63
   34.7335     25.04     27.25    -29.21     23.63
   34.7436     25.68     27.22    -28.54     23.62
   34.7538     25.55     27.18    -28.63     23.62
   34.7640     25.74     27.15    -28.41     23.62
   34.7741     25.20     27.11    -28.92     23.62
   34.7843     25.65     27.08    -28.43     23.62
   34.7944     25.85     27.04    -28.20     23.62
   34.8046     25.68     27.01    -28.33     23.62
   34.8148     25.29     26.98    -28.69     23.62
   34.8249     25.16     26.94    -28.79     23.62
   34.8351     26.26     26.91    -27.65     23.62
   34.8453     24.79     26.88    -29.09     23.62
   34.8554     25.12     26.84    -28.73     23.62
   34.8656     25.32     26.81    -28.49     23.62
   34.8758     25.70     26.78    -28.08     23.62
   34.8859     25.59     26.74    -28.16     23.62
   34.8961     26.07     26.71    -27.65     23.62
   34.9063     25.53     26.68    -28.15     23.61
   34.9164     25.88     26.65    -27.77     23.61
   34.9266     25.38     26.62    -28.24     23.61
   34.9367     25.16     26.58    -28.43     23.61
   34.9469     24.74     26.55    -28.82     23.61
   34.9571     24.95     26.52    -28.57     23.61
   34.9672     24.99     26.49    -28.50     23.61
   34.9774     25.88     26.46    -27.58     23.61
   34.9876     24.85     26.43    -28.58     23.61
   34.9977     25.26     26.40    -28.14     23.61
   35.0079     25.16     26.37    -28.21     23.61
   35.0181     25.56     26.34    -27.78     23.61
   35.0282     25.41     26.31    -27.90     23.61
   35.0384     25.05     26.28    -28.23     23.61
   35.0486     25.20     26.25    -28.05     23.61
   35.0587     24.47     26.22    -28.75     23.61
   35.0689     24.82     26.19    -28.37     23.60
   35.0791     25.04     26.16    -28.12     23.60
   35.0892     24.85     26.13    -28.28     23.60
   35.0994     25.37     26.10    -27.73     23.60
   35.1095     25.75     26.07    -27.33     23.60
   35.1197     25.71     26.04    -27.34     23.60
   35.1299     24.87     26.02    -28.15     23.60
   35.1400     25.14     25.99    -27.85     23.60
   35.1502     24.34     25.96    -28.62     23.60
   35.1604     25.11     25.93    -27.83     23.60
   35.1705     24.63     25.91    -28.28     23.60
   35.1807     24.46     25.88    -28.42     23.60
   35.1909     25.28     25.85    -27.58     23.60
   35.2010     25.32     25.83    -27.51     23.60
   35.2112     24.94     25.80    -27.86     23.60
   35.2214     24.95     25.77    -27.83     23.60
   35.2315     24.16     25.75    -28.59     23.59
   35.2417     24.92     25.72    -27.81     23.59
   35.2518     24.87     25.70    -27.83     23.59
   35.2620     24.54     25.67    -28.14     23.59
   35.2722     24.13     25.65    -28.52     23.59
   35.2823     25.52     25.62    -27.11     23.59
   35.2925     24.52     25.60    -28.08     23.59
   35.3027     25.08     25.57    -27.50     23.59
   35.3128     24.61     25.55    -27.94     23.59
   35.3230     25.23     25.53    -27.30     23.59
   35.3332     24.15     25.50    -28.36     23.59
   35.3433     24.90     25.48    -27.58     23.59
   35.3535     24.69     25.46    -27.77     23.59
   35.3637     23.87     25.43    -28.57     23.59
   35.3738     24.26     25.41    -28.15     23.59
   35.3840     24.82     25.39    -27.57     23.58
   35.3942     24.56     25.37    -27.81     23.58
   35.4043     23.66     25.34    -28.69     23.58
   35.4145     25.07     25.32    -27.26     23.58
   35.4246     24.71     25.30    -27.59     23.58
   35.4348     23.96     25.28    -28.32     23.58
   35.4450     24.32     25.26    -27.94     23.58
   35.4551     24.74     25.24    -27.50     23.58
   35.4653     24.84     25.22    -27.38     23.58
   35.4755     24.95     25.20    -27.25     23.58
   35.4856     24.95     25.18    -27.23     23.58
   35.4958     23.95     25.16    -28.21     23.58
   35.5060     24.20     25.14    -27.94     23.58
   35.5161     25.04     25.12    -27.08     23.58
   35.5263     24.70     25.10    -27.40     23.58
   35.5365     24.91     25.08    -27.17     23.58
   35.5466     23.89     25.06    -28.17     23.57
   35.5568     24.21     25.04    -27.83     23.57
   35.5669     24.68     25.02    -27.35     23.57
   35.5771     24.66     25.00    -27.35     23.57
   35.5873     23.53     24.99    -28.46     23.57
   35.5974     24.77     24.97    -27.20     23.57
   35.6076     24.44     24.95    -27.51     23.57
   35.6178     24.11     24.93    -27.83     23.57
   35.6279     24.13     24.92    -27.79     23.57
   35.6381     24.19     24.90    -27.71     23.57
   35.6483     24.49     24.88    -27.40     23.57
   35.6584     24.66     24.87    -27.21     23.57
   35.6686     24.06     24.85    -27.79     23.57
   35.6788     24.24     24.83    -27.60     23.57
   35.6889     24.14     24.82    -27.68     23.57
   35.6991     23.72     24.80    -28.09     23.57
   35.7093     24.32     24.79    -27.47     23.56
   35.7194     24.07     24.77    -27.70     23.56
   35.7296     23.32     24.76    -28.44     23.56
   35.7397     23.87     24.74    -27.87     23.56
   35.7499     24.13     24.73    -27.60     23.56
   35.7601     24.09     24.71    -27.63     23.56
   35.7702     24.17     24.70    -27.53     23.56
   35.7804     24.43     24.68    -27.26     23.56
   35.7906     24.99     24.67    -26.68     23.56
   35.8007     24.57     24.65    -27.09     23.56
   35.8109     23.62     24.64    -28.02     23.56
   35.8211     24.17     24.63    -27.46     23.56
   35.8312     25.01     24.61    -26.61     23.56
   35.8414     23.82     24.60    -27.79     23.56
   35.8516     24.77     24.59    -26.82     23.56
   35.8617     24.30     24.58    -27.28     23.56
   35.8719     24.29     24.56    -27.28     23.55
   35.8820     24.45     24.55    -27.10     23.55
   35.8922     23.76     24.54    -27.78     23.55
   35.9024     24.30     24.53    -27.23     23.55
   35.9125     23.82     24.51    -27.70     23.55
   35.9227     24.01     24.50    -27.50     23.55
   35.9329     23.79     24.49    -27.70     23.55
   35.9430     23.75     24.48    -27.73     23.55
   35.9532     23.68     24.47    -27.79     23.55
   35.9634     24.76     24.46    -26.70     23.55
   35.9735     24.23     24.45    -27.22     23.55
   35.9837     24.76     24.44    -26.68     23.55
   35.9939     23.55     24.42    -27.88     23.55
   36.0040     24.49     24.41    -26.93     23.55
   36.0142     24.27     24.40    -27.14     23.55
   36.0244     23.92     24.39    -27.48     23.55
   36.0345     23.98     24.38    -27.41     23.54
   36.0447     23.83     24.37    -27.55     23.54
   36.0548     23.58     24.36    -27.79     23.54
   36.0650     24.10     24.35    -27.26     23.54
   36.0752     23.93     24.35    -27.42     23.54
   36.0853     24.42     24.34    -26.92     23.54
   36.0955     24.25     24.33    -27.08     23.54
   36.1057     23.41     24.32    -27.91     23.54
   36.1158     24.09     24.31    -27.22     23.54
   36.1260     23.91     24.30    -27.39     23.54
   36.1362     24.15     24.29    -27.15     23.54
   36.1463     24.17     24.28    -27.12     23.54
   36.1565     24.15     24.27    -27.13     23.54
   36.1667     24.09     24.27    -27.18     23.54
   36.1768     24.42     24.26    -26.84     23.54
   36.1870     24.68     24.25    -26.57     23.54
   36.1971     24.22     24.24    -27.03     23.53
   36.2073     24.43     24.23    -26.81     23.53
   36.2175     23.88     24.23    -27.35     23.53
   36.2276     24.13     24.22    -27.09     23.53
   36.2378     23.91     24.21    -27.31     23.53
   36.2480     24.55     24.20    -26.66     23.53
