 => TITLE: 
 => Data file name: C:\Users\stefano\Nextcloud2\uni\master-thesis\XRD\data\G111\G111--5-40-0.01-1000ms.xy
 => Instrm        :    1
 => Lambda(1&2)   :   1.54060  1.54060
 => Numb.of.points:      2951
 => Numb.of.peaks :         7
    2Theta     Yobs     Ycalc  Yobs-Ycal    Backg    Bragg     Posr  Intensity   FWHM    Eta
    6.0086     23.72     24.53    -27.36     20.00   18.6828     -2.22     144.92  0.7169  0.6222
    6.0187     23.63     24.54    -27.46     20.00   20.6426     -2.22      25.29  0.6284  0.6222
    6.0289     23.77     24.55    -27.32     20.00   22.5655     -2.22     106.75  0.9997  0.6222
    6.0391     23.38     24.55    -27.72     20.00   28.5670     -2.22      62.41  1.3791  0.6222
    6.0492     23.66     24.56    -27.44     20.00   30.0459     -2.22      32.47  3.0791  0.6222
    6.0594     22.86     24.57    -28.25     20.00   33.4085     -2.22      18.86  3.0791  0.6222
    6.0696     22.91     24.57    -28.21     20.00   19.6832     -2.22    1052.98  8.5537  0.6222
    6.0797     22.79     24.58    -28.33     20.00
    6.0899     23.34     24.59    -27.79     20.00
    6.1001     22.82     24.59    -28.32     20.00
    6.1102     23.01     24.60    -28.13     20.00
    6.1204     22.55     24.60    -28.60     20.00
    6.1306     23.70     24.61    -27.46     20.00
    6.1407     23.16     24.62    -28.00     20.00
    6.1509     23.45     24.62    -27.72     20.00
    6.1611     22.96     24.63    -28.22     20.00
    6.1712     22.88     24.64    -28.30     20.00
    6.1814     22.88     24.65    -28.31     20.00
    6.1915     23.66     24.65    -27.54     20.00
    6.2017     22.99     24.66    -28.21     20.00
    6.2119     22.48     24.67    -28.73     20.00
    6.2220     23.40     24.67    -27.82     20.00
    6.2322     22.10     24.68    -29.12     20.00
    6.2424     22.76     24.69    -28.47     20.00
    6.2525     23.07     24.69    -28.17     20.00
    6.2627     23.42     24.70    -27.83     20.00
    6.2729     23.15     24.71    -28.10     20.00
    6.2830     22.78     24.71    -28.48     20.00
    6.2932     22.54     24.72    -28.73     20.00
    6.3034     22.50     24.73    -28.77     20.00
    6.3135     22.88     24.73    -28.40     20.00
    6.3237     22.83     24.74    -28.46     20.00
    6.3338     22.73     24.75    -28.56     20.00
    6.3440     22.71     24.76    -28.59     20.00
    6.3542     22.91     24.76    -28.40     20.00
    6.3643     22.62     24.77    -28.70     20.00
    6.3745     23.80     24.78    -27.52     20.00
    6.3847     23.15     24.78    -28.18     20.00
    6.3948     22.85     24.79    -28.49     20.00
    6.4050     22.48     24.80    -28.86     20.00
    6.4152     22.65     24.80    -28.70     20.00
    6.4253     23.30     24.81    -28.06     20.00
    6.4355     22.71     24.82    -28.65     20.00
    6.4457     22.24     24.83    -29.13     20.00
    6.4558     23.34     24.83    -28.04     20.00
    6.4660     22.85     24.84    -28.54     20.00
    6.4762     23.23     24.85    -28.16     20.00
    6.4863     23.12     24.86    -28.28     20.00
    6.4965     22.99     24.86    -28.42     20.00
    6.5066     23.03     24.87    -28.39     20.00
    6.5168     22.65     24.88    -28.77     20.00
    6.5270     23.79     24.88    -27.64     20.00
    6.5371     22.68     24.89    -28.76     20.00
    6.5473     22.58     24.90    -28.87     20.00
    6.5575     23.29     24.91    -28.16     20.00
    6.5676     22.98     24.91    -28.48     20.00
    6.5778     22.26     24.92    -29.21     20.00
    6.5880     22.90     24.93    -28.57     20.00
    6.5981     22.76     24.94    -28.72     20.00
    6.6083     22.85     24.94    -28.64     20.00
    6.6185     23.01     24.95    -28.49     20.00
    6.6286     22.78     24.96    -28.72     20.00
    6.6388     23.41     24.97    -28.10     20.00
    6.6489     22.42     24.97    -29.10     20.00
    6.6591     23.17     24.98    -28.36     20.00
    6.6693     23.07     24.99    -28.47     20.00
    6.6794     23.21     25.00    -28.33     20.00
    6.6896     22.98     25.00    -28.57     20.00
    6.6998     23.32     25.01    -28.24     20.00
    6.7099     22.78     25.02    -28.79     20.00
    6.7201     22.96     25.03    -28.61     20.00
    6.7303     22.95     25.04    -28.63     20.00
    6.7404     23.15     25.04    -28.44     20.00
    6.7506     23.68     25.05    -27.92     20.00
    6.7608     22.80     25.06    -28.81     20.00
    6.7709     23.45     25.07    -28.16     20.00
    6.7811     23.60     25.07    -28.02     20.00
    6.7913     23.41     25.08    -28.22     20.00
    6.8014     23.23     25.09    -28.41     20.00
    6.8116     23.96     25.10    -27.68     20.00
    6.8217     23.51     25.11    -28.14     20.00
    6.8319     22.93     25.11    -28.73     20.00
    6.8421     23.37     25.12    -28.30     20.00
    6.8522     23.13     25.13    -28.55     20.00
    6.8624     23.61     25.14    -28.07     20.00
    6.8726     23.27     25.15    -28.42     20.00
    6.8827     23.40     25.15    -28.30     20.00
    6.8929     24.46     25.16    -27.25     20.00
    6.9031     22.36     25.17    -29.36     20.00
    6.9132     23.68     25.18    -28.04     20.00
    6.9234     23.94     25.19    -27.79     20.00
    6.9336     23.88     25.20    -27.86     20.00
    6.9437     23.39     25.20    -28.36     20.00
    6.9539     22.98     25.21    -28.78     20.00
    6.9640     23.70     25.22    -28.07     20.00
    6.9742     24.20     25.23    -27.57     20.00
    6.9844     23.47     25.24    -28.31     20.00
    6.9945     23.41     25.24    -28.38     20.00
    7.0047     23.71     25.25    -28.09     20.00
    7.0149     23.32     25.26    -28.49     20.00
    7.0250     23.66     25.27    -28.16     20.00
    7.0352     23.93     25.28    -27.89     20.00
    7.0454     23.36     25.29    -28.47     20.00
    7.0555     23.68     25.30    -28.16     20.00
    7.0657     24.55     25.30    -27.30     20.00
    7.0759     24.18     25.31    -27.68     20.00
    7.0860     23.84     25.32    -28.03     20.00
    7.0962     24.54     25.33    -27.34     20.00
    7.1064     24.16     25.34    -27.72     20.00
    7.1165     23.21     25.35    -28.68     20.00
    7.1267     23.98     25.36    -27.92     20.00
    7.1368     23.80     25.36    -28.11     20.00
    7.1470     24.41     25.37    -27.51     20.00
    7.1572     23.42     25.38    -28.51     20.00
    7.1673     24.05     25.39    -27.89     20.00
    7.1775     24.22     25.40    -27.73     20.00
    7.1877     24.17     25.41    -27.78     20.00
    7.1978     23.70     25.42    -28.26     20.00
    7.2080     24.35     25.43    -27.62     20.00
    7.2182     23.33     25.43    -28.65     20.00
    7.2283     23.60     25.44    -28.39     20.00
    7.2385     23.79     25.45    -28.21     20.00
    7.2487     23.68     25.46    -28.33     20.00
    7.2588     24.35     25.47    -27.67     20.00
    7.2690     24.20     25.48    -27.83     20.00
    7.2791     23.66     25.49    -28.37     20.00
    7.2893     24.48     25.50    -27.56     20.00
    7.2995     24.34     25.51    -27.71     20.00
    7.3096     23.63     25.52    -28.43     20.00
    7.3198     23.79     25.53    -28.28     20.00
    7.3300     23.87     25.53    -28.21     20.00
    7.3401     24.23     25.54    -27.86     20.00
    7.3503     24.01     25.55    -28.09     20.00
    7.3605     23.79     25.56    -28.32     20.00
    7.3706     24.51     25.57    -27.61     20.00
    7.3808     24.60     25.58    -27.53     20.00
    7.3910     24.03     25.59    -28.11     20.00
    7.4011     24.86     25.60    -27.29     20.00
    7.4113     24.27     25.61    -27.89     20.00
    7.4215     23.98     25.62    -28.18     20.00
    7.4316     24.49     25.63    -27.68     20.00
    7.4418     24.52     25.64    -27.66     20.00
    7.4519     24.76     25.65    -27.43     20.00
    7.4621     25.38     25.66    -26.82     20.00
    7.4723     24.31     25.67    -27.90     20.00
    7.4824     24.74     25.68    -27.48     20.00
    7.4926     25.55     25.69    -26.68     20.00
    7.5028     24.55     25.70    -27.69     20.00
    7.5129     24.70     25.70    -27.55     20.00
    7.5231     25.16     25.71    -27.10     20.00
    7.5333     24.88     25.72    -27.39     20.00
    7.5434     24.70     25.73    -27.58     20.00
    7.5536     24.17     25.74    -28.12     20.00
    7.5638     24.45     25.75    -27.85     20.00
    7.5739     24.74     25.76    -27.57     20.00
    7.5841     24.51     25.77    -27.81     20.00
    7.5942     25.63     25.78    -26.70     20.00
    7.6044     24.01     25.79    -28.33     20.00
    7.6146     24.73     25.80    -27.62     20.00
    7.6247     24.79     25.81    -27.57     20.00
    7.6349     24.69     25.82    -27.68     20.00
    7.6451     24.80     25.83    -27.58     20.00
    7.6552     24.98     25.84    -27.41     20.00
    7.6654     24.40     25.85    -28.00     20.00
    7.6756     24.89     25.86    -27.52     20.00
    7.6857     24.48     25.87    -27.94     20.00
    7.6959     24.79     25.89    -27.64     20.00
    7.7061     24.69     25.90    -27.75     20.00
    7.7162     25.93     25.91    -26.52     20.00
    7.7264     25.12     25.92    -27.34     20.00
    7.7365     25.07     25.93    -27.40     20.00
    7.7467     25.49     25.94    -26.99     20.00
    7.7569     24.51     25.95    -27.98     20.00
    7.7670     25.50     25.96    -27.00     20.00
    7.7772     24.74     25.97    -27.77     20.00
    7.7874     24.54     25.98    -27.99     20.00
    7.7975     25.74     25.99    -26.80     20.00
    7.8077     24.80     26.00    -27.75     20.00
    7.8179     25.20     26.01    -27.36     20.00
    7.8280     26.05     26.02    -26.52     20.00
    7.8382     25.49     26.03    -27.09     20.00
    7.8484     25.74     26.04    -26.85     20.00
    7.8585     25.30     26.05    -27.30     20.00
    7.8687     25.57     26.07    -27.04     20.00
    7.8789     25.10     26.08    -27.52     20.00
    7.8890     25.61     26.09    -27.02     20.00
    7.8992     25.88     26.10    -26.76     20.00
    7.9093     25.70     26.11    -26.96     20.00
    7.9195     25.80     26.12    -26.87     20.00
    7.9297     25.79     26.13    -26.89     20.00
    7.9398     25.63     26.14    -27.06     20.00
    7.9500     25.34     26.15    -27.36     20.00
    7.9602     25.27     26.16    -27.44     20.00
    7.9703     25.48     26.18    -27.24     20.00
    7.9805     24.87     26.19    -27.86     20.00
    7.9907     25.13     26.20    -27.61     20.00
    8.0008     25.36     26.21    -27.40     20.00
    8.0110     25.20     26.22    -27.57     20.00
    8.0212     24.93     26.23    -27.85     20.00
    8.0313     25.07     26.24    -27.72     20.00
    8.0415     25.48     26.26    -27.32     20.00
    8.0516     25.84     26.27    -26.97     20.00
    8.0618     25.62     26.28    -27.20     20.00
    8.0720     25.68     26.29    -27.16     20.00
    8.0821     26.62     26.30    -26.23     20.00
    8.0923     25.70     26.31    -27.16     20.00
    8.1025     26.90     26.33    -25.97     20.00
    8.1126     25.74     26.34    -27.14     20.00
    8.1228     25.31     26.35    -27.59     20.00
    8.1330     26.76     26.36    -26.15     20.00
    8.1431     25.95     26.37    -26.97     20.00
    8.1533     25.60     26.39    -27.33     20.00
    8.1635     25.95     26.40    -26.99     20.00
    8.1736     27.24     26.41    -25.72     20.00
    8.1838     26.09     26.42    -26.88     20.00
    8.1940     26.18     26.43    -26.80     20.00
    8.2041     26.71     26.45    -26.28     20.00
    8.2143     26.65     26.46    -26.35     20.00
    8.2244     26.46     26.47    -26.56     20.00
    8.2346     26.53     26.48    -26.50     20.00
    8.2448     26.23     26.49    -26.81     20.00
    8.2549     26.40     26.51    -26.65     20.00
    8.2651     26.19     26.52    -26.88     20.00
    8.2753     26.35     26.53    -26.73     20.00
    8.2854     26.85     26.54    -26.24     20.00
    8.2956     26.45     26.56    -26.65     20.00
    8.3058     25.99     26.57    -27.13     20.00
    8.3159     26.09     26.58    -27.04     20.00
    8.3261     26.84     26.59    -26.30     20.00
    8.3363     26.66     26.61    -26.49     20.00
    8.3464     25.62     26.62    -27.55     20.00
    8.3566     26.43     26.63    -26.75     20.00
    8.3667     26.59     26.65    -26.60     20.00
    8.3769     25.99     26.66    -27.21     20.00
    8.3871     26.36     26.67    -26.86     20.00
    8.3972     26.69     26.68    -26.54     20.00
    8.4074     26.45     26.70    -26.79     20.00
    8.4176     26.60     26.71    -26.66     20.00
    8.4277     26.99     26.72    -26.28     20.00
    8.4379     27.11     26.74    -26.17     20.00
    8.4481     27.23     26.75    -26.07     20.00
    8.4582     26.49     26.76    -26.82     20.00
    8.4684     26.92     26.78    -26.40     20.00
    8.4786     26.98     26.79    -26.36     20.00
    8.4887     26.90     26.80    -26.45     20.00
    8.4989     26.15     26.82    -27.21     20.00
    8.5091     26.91     26.83    -26.47     20.00
    8.5192     26.72     26.84    -26.67     20.00
    8.5294     27.76     26.86    -25.64     20.00
    8.5395     27.62     26.87    -25.80     20.00
    8.5497     26.62     26.89    -26.81     20.00
    8.5599     27.15     26.90    -26.30     20.00
    8.5700     26.99     26.91    -26.47     20.00
    8.5802     26.57     26.93    -26.90     20.00
    8.5904     27.26     26.94    -26.23     20.00
    8.6005     26.55     26.95    -26.95     20.00
    8.6107     27.02     26.97    -26.49     20.00
    8.6209     26.84     26.98    -26.69     20.00
    8.6310     27.45     27.00    -26.09     20.00
    8.6412     26.62     27.01    -26.94     20.00
    8.6514     27.38     27.03    -26.19     20.00
    8.6615     28.18     27.04    -25.41     20.00
    8.6717     26.97     27.05    -26.63     20.00
    8.6818     26.70     27.07    -26.91     20.00
    8.6920     27.98     27.08    -25.65     20.00
    8.7022     27.18     27.10    -26.46     20.00
    8.7123     28.26     27.11    -25.40     20.00
    8.7225     28.00     27.13    -25.67     20.00
    8.7327     26.96     27.14    -26.73     20.00
    8.7428     27.15     27.16    -26.55     20.00
    8.7530     27.78     27.17    -25.94     20.00
    8.7632     26.84     27.19    -26.89     20.00
    8.7733     26.96     27.20    -26.79     20.00
    8.7835     27.49     27.22    -26.27     20.00
    8.7937     27.04     27.23    -26.74     20.00
    8.8038     28.16     27.25    -25.63     20.00
    8.8140     27.88     27.26    -25.93     20.00
    8.8242     26.79     27.28    -27.03     20.00
    8.8343     27.31     27.29    -26.53     20.00
    8.8445     27.77     27.31    -26.08     20.00
    8.8546     27.95     27.32    -25.92     20.00
    8.8648     27.84     27.34    -26.04     20.00
    8.8750     27.27     27.35    -26.63     20.00
    8.8851     27.45     27.37    -26.46     20.00
    8.8953     27.99     27.38    -25.94     20.00
    8.9055     27.82     27.40    -26.12     20.00
    8.9156     27.30     27.41    -26.66     20.00
    8.9258     29.51     27.43    -24.47     20.00
    8.9360     28.36     27.45    -25.63     20.00
    8.9461     27.21     27.46    -26.80     20.00
    8.9563     28.80     27.48    -25.22     20.00
    8.9665     28.36     27.49    -25.68     20.00
    8.9766     27.84     27.51    -26.22     20.00
    8.9868     28.30     27.53    -25.77     20.00
    8.9969     27.19     27.54    -26.90     20.00
    9.0071     27.82     27.56    -26.28     20.00
    9.0173     29.09     27.57    -25.03     20.00
    9.0274     28.71     27.59    -25.43     20.00
    9.0376     28.57     27.61    -25.58     20.00
    9.0478     27.67     27.62    -26.50     20.00
    9.0579     27.98     27.64    -26.21     20.00
    9.0681     27.43     27.66    -26.77     20.00
    9.0783     28.24     27.67    -25.98     20.00
    9.0884     28.11     27.69    -26.13     20.00
    9.0986     28.36     27.71    -25.89     20.00
    9.1088     29.17     27.72    -25.10     20.00
    9.1189     28.48     27.74    -25.81     20.00
    9.1291     28.93     27.76    -25.37     20.00
    9.1393     28.83     27.77    -25.49     20.00
    9.1494     27.74     27.79    -26.60     20.00
    9.1596     29.42     27.81    -24.93     20.00
    9.1697     28.40     27.83    -25.97     20.00
    9.1799     28.90     27.84    -25.49     20.00
    9.1901     27.67     27.86    -26.74     20.00
    9.2002     28.85     27.88    -25.57     20.00
    9.2104     28.95     27.90    -25.49     20.00
    9.2206     28.74     27.91    -25.72     20.00
    9.2307     29.14     27.93    -25.34     20.00
    9.2409     29.36     27.95    -25.13     20.00
    9.2511     28.26     27.97    -26.25     20.00
    9.2612     28.32     27.98    -26.21     20.00
    9.2714     29.45     28.00    -25.10     20.00
    9.2816     28.31     28.02    -26.26     20.00
    9.2917     28.74     28.04    -25.84     20.00
    9.3019     28.49     28.06    -26.11     20.00
    9.3120     28.91     28.07    -25.71     20.00
    9.3222     28.85     28.09    -25.79     20.00
    9.3324     28.99     28.11    -25.67     20.00
    9.3425     28.52     28.13    -26.15     20.00
    9.3527     29.96     28.15    -24.73     20.00
    9.3629     27.99     28.17    -26.72     20.00
    9.3730     29.09     28.18    -25.64     20.00
    9.3832     28.63     28.20    -26.12     20.00
    9.3934     29.54     28.22    -25.23     20.00
    9.4035     28.71     28.24    -26.08     20.00
    9.4137     29.48     28.26    -25.33     20.00
    9.4239     29.41     28.28    -25.41     20.00
    9.4340     29.45     28.30    -25.39     20.00
    9.4442     29.57     28.32    -25.29     20.00
    9.4544     29.02     28.34    -25.86     20.00
    9.4645     29.59     28.36    -25.31     20.00
    9.4747     29.59     28.37    -25.33     20.00
    9.4848     29.46     28.39    -25.48     20.00
    9.4950     29.51     28.41    -25.45     20.00
    9.5052     29.85     28.43    -25.13     20.00
    9.5153     29.54     28.45    -25.46     20.00
    9.5255     29.39     28.47    -25.63     20.00
    9.5357     30.60     28.49    -24.44     20.00
    9.5458     30.16     28.51    -24.90     20.00
    9.5560     28.48     28.53    -26.60     20.00
    9.5662     29.27     28.55    -25.83     20.00
    9.5763     29.75     28.57    -25.37     20.00
    9.5865     29.09     28.59    -26.05     20.00
    9.5967     29.95     28.61    -25.21     20.00
    9.6068     29.51     28.63    -25.67     20.00
    9.6170     29.60     28.65    -25.60     20.00
    9.6271     30.63     28.67    -24.59     20.00
    9.6373     29.58     28.70    -25.66     20.00
    9.6475     29.16     28.72    -26.10     20.00
    9.6576     30.15     28.74    -25.13     20.00
    9.6678     30.15     28.76    -25.15     20.00
    9.6780     29.24     28.78    -26.08     20.00
    9.6881     30.02     28.80    -25.33     20.00
    9.6983     29.80     28.82    -25.57     20.00
    9.7085     30.37     28.84    -25.02     20.00
    9.7186     30.50     28.86    -24.91     20.00
    9.7288     30.07     28.88    -25.36     20.00
    9.7390     29.40     28.91    -26.05     20.00
    9.7491     29.79     28.93    -25.68     20.00
    9.7593     29.30     28.95    -26.20     20.00
    9.7694     29.30     28.97    -26.22     20.00
    9.7796     30.12     28.99    -25.42     20.00
    9.7898     30.66     29.01    -24.90     20.00
    9.7999     29.83     29.04    -25.75     20.00
    9.8101     29.98     29.06    -25.62     20.00
    9.8203     30.60     29.08    -25.03     20.00
    9.8304     29.07     29.10    -26.58     20.00
    9.8406     30.62     29.13    -25.05     20.00
    9.8508     29.89     29.15    -25.80     20.00
    9.8609     29.05     29.17    -26.67     20.00
    9.8711     31.16     29.19    -24.58     20.00
    9.8813     29.76     29.22    -26.00     20.00
    9.8914     30.05     29.24    -25.73     20.00
    9.9016     30.13     29.26    -25.68     20.00
    9.9118     30.56     29.28    -25.27     20.00
    9.9219     29.55     29.31    -26.30     20.00
    9.9321     30.55     29.33    -25.33     20.00
    9.9422     29.75     29.35    -26.15     20.00
    9.9524     30.84     29.38    -25.08     20.00
    9.9626     29.82     29.40    -26.13     20.00
    9.9727     30.52     29.42    -25.45     20.00
    9.9829     30.44     29.45    -25.55     20.00
    9.9931     30.38     29.47    -25.64     20.00
   10.0032     30.38     29.49    -25.66     20.00
   10.0134     30.46     29.52    -25.60     20.00
   10.0236     30.73     29.54    -25.36     20.00
   10.0337     29.68     29.57    -26.43     20.00
   10.0439     30.16     29.59    -25.98     20.00
   10.0541     30.99     29.62    -25.17     20.00
   10.0642     30.31     29.64    -25.88     20.00
   10.0744     31.31     29.66    -24.90     20.00
   10.0845     31.16     29.69    -25.07     20.00
   10.0947     30.84     29.71    -25.42     20.00
   10.1049     30.92     29.74    -25.36     20.00
   10.1150     30.85     29.76    -25.46     20.00
   10.1252     31.17     29.79    -25.16     20.00
   10.1354     31.06     29.81    -25.30     20.00
   10.1455     31.55     29.84    -24.83     20.00
   10.1557     30.80     29.86    -25.61     20.00
   10.1659     30.49     29.89    -25.95     20.00
   10.1760     30.25     29.91    -26.21     20.00
   10.1862     30.60     29.94    -25.89     20.00
   10.1964     31.32     29.97    -25.19     20.00
   10.2065     30.34     29.99    -26.20     20.00
   10.2167     30.96     30.02    -25.60     20.00
   10.2269     29.46     30.04    -27.13     20.00
   10.2370     31.05     30.07    -25.57     20.00
   10.2472     31.63     30.10    -25.01     20.00
   10.2573     30.60     30.12    -26.07     20.00
   10.2675     31.01     30.15    -25.68     20.00
   10.2777     30.86     30.18    -25.86     20.00
   10.2878     30.65     30.20    -26.10     20.00
   10.2980     30.67     30.23    -26.10     20.00
   10.3082     31.15     30.26    -25.65     20.00
   10.3183     31.64     30.28    -25.19     20.00
   10.3285     31.84     30.31    -25.02     20.00
   10.3387     31.16     30.34    -25.72     20.00
   10.3488     30.54     30.36    -26.37     20.00
   10.3590     31.59     30.39    -25.35     20.00
   10.3692     31.15     30.42    -25.82     20.00
   10.3793     30.82     30.45    -26.17     20.00
   10.3895     31.49     30.47    -25.53     20.00
   10.3996     30.68     30.50    -26.37     20.00
   10.4098     31.33     30.53    -25.75     20.00
   10.4200     31.36     30.56    -25.74     20.00
   10.4301     32.18     30.59    -24.95     20.00
   10.4403     31.33     30.62    -25.83     20.00
   10.4505     30.74     30.64    -26.45     20.00
   10.4606     32.37     30.67    -24.85     20.00
   10.4708     31.71     30.70    -25.54     20.00
   10.4810     31.43     30.73    -25.85     20.00
   10.4911     30.93     30.76    -26.37     20.00
   10.5013     32.05     30.79    -25.28     20.00
   10.5115     31.69     30.82    -25.67     20.00
   10.5216     30.68     30.85    -26.71     20.00
   10.5318     31.88     30.88    -25.54     20.00
   10.5420     31.27     30.91    -26.18     20.00
   10.5521     31.42     30.93    -26.06     20.00
   10.5623     32.05     30.96    -25.46     20.00
   10.5724     31.14     30.99    -26.40     20.00
   10.5826     31.45     31.02    -26.12     20.00
   10.5928     32.15     31.05    -25.45     20.00
   10.6029     32.05     31.08    -25.58     20.00
   10.6131     31.88     31.11    -25.78     20.00
   10.6233     31.68     31.15    -26.01     20.00
   10.6334     32.82     31.18    -24.90     20.00
   10.6436     32.12     31.21    -25.63     20.00
   10.6538     33.46     31.24    -24.32     20.00
   10.6639     32.85     31.27    -24.96     20.00
   10.6741     31.92     31.30    -25.93     20.00
   10.6843     33.08     31.33    -24.80     20.00
   10.6944     32.54     31.36    -25.37     20.00
   10.7046     32.50     31.39    -25.44     20.00
   10.7147     32.83     31.42    -25.14     20.00
   10.7249     32.53     31.46    -25.47     20.00
   10.7351     32.37     31.49    -25.66     20.00
   10.7452     32.61     31.52    -25.46     20.00
   10.7554     32.54     31.55    -25.56     20.00
   10.7656     32.38     31.58    -25.75     20.00
   10.7757     32.29     31.62    -25.87     20.00
   10.7859     32.93     31.65    -25.27     20.00
   10.7961     32.37     31.68    -25.86     20.00
   10.8062     32.82     31.71    -25.44     20.00
   10.8164     33.00     31.75    -25.29     20.00
   10.8266     32.51     31.78    -25.82     20.00
   10.8367     32.68     31.81    -25.68     20.00
   10.8469     32.22     31.85    -26.17     20.00
   10.8571     32.27     31.88    -26.16     20.00
   10.8672     33.34     31.91    -25.12     20.00
   10.8774     32.21     31.95    -26.28     20.00
   10.8875     32.36     31.98    -26.17     20.00
   10.8977     32.38     32.02    -26.18     20.00
   10.9079     31.71     32.05    -26.89     20.00
   10.9180     32.52     32.08    -26.11     20.00
   10.9282     32.37     32.12    -26.29     20.00
   10.9384     33.12     32.15    -25.58     20.00
   10.9485     31.97     32.19    -26.76     20.00
   10.9587     33.07     32.22    -25.70     20.00
   10.9689     32.99     32.26    -25.81     20.00
   10.9790     32.51     32.29    -26.33     20.00
   10.9892     31.94     32.33    -26.93     20.00
   10.9994     33.13     32.36    -25.78     20.00
   11.0095     32.08     32.40    -26.86     20.00
   11.0197     33.55     32.43    -25.43     20.00
   11.0298     33.57     32.47    -25.45     20.00
   11.0400     32.19     32.51    -26.86     20.00
   11.0502     33.41     32.54    -25.68     20.00
   11.0603     33.45     32.58    -25.67     20.00
   11.0705     33.32     32.61    -25.84     20.00
   11.0807     33.71     32.65    -25.49     20.00
   11.0908     33.04     32.69    -26.19     20.00
   11.1010     33.04     32.72    -26.23     20.00
   11.1112     33.41     32.76    -25.90     20.00
   11.1213     33.65     32.80    -25.69     20.00
   11.1315     33.41     32.84    -25.97     20.00
   11.1417     32.53     32.87    -26.89     20.00
   11.1518     32.98     32.91    -26.48     20.00
   11.1620     33.33     32.95    -26.16     20.00
   11.1722     32.82     32.99    -26.71     20.00
   11.1823     33.15     33.02    -26.42     20.00
   11.1925     33.77     33.06    -25.84     20.00
   11.2026     33.57     33.10    -26.08     20.00
   11.2128     34.22     33.14    -25.46     20.00
   11.2230     33.95     33.18    -25.77     20.00
   11.2331     33.10     33.22    -26.66     20.00
   11.2433     33.20     33.25    -26.60     20.00
   11.2535     33.69     33.29    -26.15     20.00
   11.2636     34.77     33.33    -25.11     20.00
   11.2738     33.55     33.37    -26.37     20.00
   11.2840     34.13     33.41    -25.83     20.00
   11.2941     34.22     33.45    -25.78     20.00
   11.3043     33.82     33.49    -26.22     20.00
   11.3145     34.29     33.53    -25.79     20.00
   11.3246     33.31     33.57    -26.81     20.00
   11.3348     34.77     33.61    -25.39     20.00
   11.3449     34.65     33.65    -25.55     20.00
   11.3551     33.71     33.69    -26.53     20.00
   11.3653     33.09     33.73    -27.19     20.00
   11.3754     34.69     33.77    -25.63     20.00
   11.3856     34.73     33.82    -25.63     20.00
   11.3958     33.21     33.86    -27.19     20.00
   11.4059     34.07     33.90    -26.37     20.00
   11.4161     34.45     33.94    -26.04     20.00
   11.4263     34.29     33.98    -26.24     20.00
   11.4364     33.66     34.02    -26.91     20.00
   11.4466     33.49     34.07    -27.12     20.00
   11.4568     33.63     34.11    -27.02     20.00
   11.4669     33.92     34.15    -26.78     20.00
   11.4771     34.95     34.19    -25.79     20.00
   11.4873     34.17     34.24    -26.61     20.00
   11.4974     35.17     34.28    -25.65     20.00
   11.5076     34.87     34.32    -26.00     20.00
   11.5177     34.93     34.36    -25.98     20.00
   11.5279     34.65     34.41    -26.30     20.00
   11.5381     34.84     34.45    -26.16     20.00
   11.5482     34.93     34.50    -26.11     20.00
   11.5584     35.91     34.54    -25.18     20.00
   11.5686     34.44     34.58    -26.69     20.00
   11.5787     35.38     34.63    -25.79     20.00
   11.5889     35.12     34.67    -26.10     20.00
   11.5991     35.20     34.72    -26.06     20.00
   11.6092     35.16     34.76    -26.15     20.00
   11.6194     35.36     34.81    -25.99     20.00
   11.6296     34.62     34.85    -26.78     20.00
   11.6397     34.55     34.90    -26.89     20.00
   11.6499     35.26     34.94    -26.23     20.00
   11.6600     35.42     34.99    -26.11     20.00
   11.6702     35.77     35.03    -25.81     20.00
   11.6804     35.28     35.08    -26.35     20.00
   11.6905     34.88     35.13    -26.79     20.00
   11.7007     35.41     35.17    -26.31     20.00
   11.7109     34.68     35.22    -27.08     20.00
   11.7210     35.16     35.27    -26.65     20.00
   11.7312     35.43     35.31    -26.43     20.00
   11.7414     35.73     35.36    -26.18     20.00
   11.7515     35.04     35.41    -26.91     20.00
   11.7617     35.77     35.45    -26.23     20.00
   11.7719     35.60     35.50    -26.45     20.00
   11.7820     35.23     35.55    -26.87     20.00
   11.7922     35.99     35.60    -26.15     20.00
   11.8023     36.10     35.65    -26.09     20.00
   11.8125     35.57     35.69    -26.67     20.00
   11.8227     36.62     35.74    -25.67     20.00
   11.8328     35.61     35.79    -26.73     20.00
   11.8430     36.15     35.84    -26.24     20.00
   11.8532     36.91     35.89    -25.53     20.00
   11.8633     36.37     35.94    -26.11     20.00
   11.8735     36.35     35.99    -26.18     20.00
   11.8837     36.12     36.04    -26.46     20.00
   11.8938     36.46     36.09    -26.17     20.00
   11.9040     36.02     36.14    -26.66     20.00
   11.9142     36.46     36.19    -26.27     20.00
   11.9243     37.20     36.24    -25.58     20.00
   11.9345     36.20     36.29    -26.63     20.00
   11.9447     36.95     36.34    -25.94     20.00
   11.9548     36.37     36.39    -26.57     20.00
   11.9650     36.15     36.44    -26.84     20.00
   11.9751     37.35     36.49    -25.69     20.00
   11.9853     36.52     36.54    -26.57     20.00
   11.9955     36.60     36.60    -26.54     20.00
   12.0056     36.29     36.65    -26.90     20.00
   12.0158     36.63     36.70    -26.62     20.00
   12.0260     36.68     36.75    -26.62     20.00
   12.0361     36.45     36.80    -26.90     20.00
   12.0463     37.34     36.86    -26.06     20.00
   12.0565     37.21     36.91    -26.25     20.00
   12.0666     37.00     36.96    -26.51     20.00
   12.0768     36.54     37.02    -27.02     20.00
   12.0870     36.74     37.07    -26.88     20.00
   12.0971     36.46     37.12    -27.21     20.00
   12.1073     37.03     37.18    -26.69     20.00
   12.1174     37.03     37.23    -26.75     20.00
   12.1276     37.44     37.29    -26.39     20.00
   12.1378     36.91     37.34    -26.98     20.00
   12.1479     36.90     37.40    -27.04     20.00
   12.1581     36.48     37.45    -27.52     20.00
   12.1683     37.66     37.51    -26.39     20.00
   12.1784     37.47     37.56    -26.64     20.00
   12.1886     37.43     37.62    -26.73     20.00
   12.1988     36.92     37.67    -27.30     20.00
   12.2089     37.70     37.73    -26.57     20.00
   12.2191     38.25     37.78    -26.08     20.00
   12.2293     38.09     37.84    -26.30     20.00
   12.2394     36.80     37.90    -27.64     20.00
   12.2496     38.53     37.95    -25.97     20.00
   12.2598     37.10     38.01    -27.46     20.00
   12.2699     37.56     38.07    -27.05     20.00
   12.2801     39.01     38.13    -25.66     20.00
   12.2902     38.24     38.18    -26.49     20.00
   12.3004     37.55     38.24    -27.24     20.00
   12.3106     39.16     38.30    -25.69     20.00
   12.3207     37.60     38.36    -27.30     20.00
   12.3309     38.43     38.42    -26.53     20.00
   12.3411     38.71     38.47    -26.31     20.00
   12.3512     37.64     38.53    -27.44     20.00
   12.3614     38.88     38.59    -26.26     20.00
   12.3716     37.40     38.65    -27.80     20.00
   12.3817     37.99     38.71    -27.27     20.00
   12.3919     38.55     38.77    -26.77     20.00
   12.4021     39.60     38.83    -25.78     20.00
   12.4122     38.01     38.89    -27.43     20.00
   12.4224     38.54     38.95    -26.96     20.00
   12.4325     39.41     39.01    -26.15     20.00
   12.4427     38.99     39.07    -26.63     20.00
   12.4529     38.67     39.13    -27.01     20.00
   12.4630     38.91     39.19    -26.83     20.00
   12.4732     39.27     39.26    -26.53     20.00
   12.4834     39.36     39.32    -26.50     20.00
   12.4935     38.53     39.38    -27.40     20.00
   12.5037     38.79     39.44    -27.20     20.00
   12.5139     38.77     39.50    -27.28     20.00
   12.5240     38.30     39.57    -27.81     20.00
   12.5342     39.31     39.63    -26.87     20.00
   12.5444     39.29     39.69    -26.95     20.00
   12.5545     38.00     39.76    -28.30     20.00
   12.5647     39.43     39.82    -26.93     20.00
   12.5749     38.68     39.88    -27.75     20.00
   12.5850     40.00     39.95    -26.49     20.00
   12.5952     38.97     40.01    -27.59     20.00
   12.6053     39.93     40.07    -26.69     20.00
   12.6155     39.76     40.14    -26.93     20.00
   12.6257     39.54     40.20    -27.21     20.00
   12.6358     39.88     40.27    -26.93     20.00
   12.6460     41.18     40.33    -25.70     20.00
   12.6562     39.62     40.40    -27.33     20.00
   12.6663     39.64     40.47    -27.37     20.00
   12.6765     39.62     40.53    -27.46     20.00
   12.6867     39.66     40.60    -27.48     20.00
   12.6968     40.06     40.66    -27.15     20.00
   12.7070     40.32     40.73    -26.96     20.00
   12.7172     40.52     40.80    -26.82     20.00
   12.7273     39.49     40.86    -27.92     20.00
   12.7375     39.86     40.93    -27.62     20.00
   12.7476     40.07     41.00    -27.47     20.00
   12.7578     40.15     41.07    -27.46     20.00
   12.7680     40.18     41.13    -27.50     20.00
   12.7781     40.62     41.20    -27.13     20.00
   12.7883     40.42     41.27    -27.40     20.00
   12.7985     40.70     41.34    -27.19     20.00
   12.8086     40.88     41.41    -27.07     20.00
   12.8188     41.17     41.48    -26.85     20.00
   12.8290     41.38     41.55    -26.71     20.00
   12.8391     41.71     41.62    -26.45     20.00
   12.8493     41.43     41.69    -26.80     20.00
   12.8595     41.30     41.76    -27.00     20.00
   12.8696     40.86     41.83    -27.51     20.00
   12.8798     41.25     41.90    -27.19     20.00
   12.8900     41.62     41.97    -26.89     20.00
   12.9001     41.57     42.04    -27.02     20.00
   12.9103     41.62     42.11    -27.04     20.00
   12.9204     41.94     42.18    -26.79     20.00
   12.9306     41.71     42.25    -27.09     20.00
   12.9408     41.59     42.33    -27.28     20.00
   12.9509     41.32     42.40    -27.62     20.00
   12.9611     41.73     42.47    -27.29     20.00
   12.9713     41.76     42.54    -27.33     20.00
   12.9814     41.41     42.62    -27.75     20.00
   12.9916     41.56     42.69    -27.68     20.00
   13.0018     41.89     42.76    -27.42     20.00
   13.0119     41.76     42.84    -27.62     20.00
   13.0221     41.65     42.91    -27.81     20.00
   13.0323     42.37     42.99    -27.16     20.00
   13.0424     43.07     43.06    -26.54     20.00
   13.0526     43.16     43.13    -26.52     20.00
   13.0627     42.59     43.21    -27.16     20.00
   13.0729     42.65     43.28    -27.18     20.00
   13.0831     42.37     43.36    -27.54     20.00
   13.0932     42.87     43.43    -27.11     20.00
   13.1034     42.53     43.51    -27.53     20.00
   13.1136     42.90     43.59    -27.23     20.00
   13.1237     42.33     43.66    -27.88     20.00
   13.1339     43.46     43.74    -26.83     20.00
   13.1441     43.05     43.82    -27.31     20.00
   13.1542     42.70     43.89    -27.74     20.00
   13.1644     43.76     43.97    -26.76     20.00
   13.1746     42.62     44.05    -27.98     20.00
   13.1847     42.51     44.13    -28.16     20.00
   13.1949     43.29     44.21    -27.46     20.00
   13.2051     43.46     44.28    -27.37     20.00
   13.2152     43.15     44.36    -27.76     20.00
   13.2254     44.37     44.44    -26.62     20.00
   13.2355     43.82     44.52    -27.25     20.00
   13.2457     43.99     44.60    -27.16     20.00
   13.2559     43.68     44.68    -27.55     20.00
   13.2660     43.74     44.76    -27.56     20.00
   13.2762     43.82     44.84    -27.56     20.00
   13.2864     43.95     44.92    -27.52     20.00
   13.2965     42.79     45.00    -28.76     20.00
   13.3067     44.09     45.08    -27.54     20.00
   13.3169     43.37     45.16    -28.34     20.00
   13.3270     44.98     45.24    -26.81     20.00
   13.3372     44.33     45.33    -27.54     20.00
   13.3474     44.84     45.41    -27.11     20.00
   13.3575     44.47     45.49    -27.57     20.00
   13.3677     43.82     45.57    -28.30     20.00
   13.3778     44.51     45.65    -27.69     20.00
   13.3880     44.34     45.74    -27.94     20.00
   13.3982     45.09     45.82    -27.28     20.00
   13.4083     45.10     45.90    -27.35     20.00
   13.4185     44.67     45.99    -27.86     20.00
   13.4287     45.55     46.07    -27.07     20.00
   13.4388     45.06     46.16    -27.64     20.00
   13.4490     44.79     46.24    -28.00     20.00
   13.4592     45.91     46.33    -26.96     20.00
   13.4693     44.09     46.41    -28.87     20.00
   13.4795     45.70     46.50    -27.34     20.00
   13.4897     45.73     46.58    -27.40     20.00
   13.4998     45.29     46.67    -27.92     20.00
   13.5100     45.59     46.75    -27.71     20.00
   13.5201     46.46     46.84    -26.92     20.00
   13.5303     44.94     46.93    -28.53     20.00
   13.5405     45.80     47.01    -27.76     20.00
   13.5506     45.77     47.10    -27.88     20.00
   13.5608     45.44     47.19    -28.29     20.00
   13.5710     46.56     47.28    -27.26     20.00
   13.5811     46.32     47.36    -27.59     20.00
   13.5913     46.47     47.45    -27.53     20.00
   13.6015     46.90     47.54    -27.19     20.00
   13.6116     46.52     47.63    -27.65     20.00
   13.6218     46.11     47.72    -28.15     20.00
   13.6320     46.71     47.81    -27.64     20.00
   13.6421     46.79     47.90    -27.65     20.00
   13.6523     46.29     47.99    -28.24     20.00
   13.6625     47.12     48.08    -27.50     20.00
   13.6726     47.46     48.17    -27.25     20.00
   13.6828     47.15     48.26    -27.65     20.00
   13.6929     47.57     48.35    -27.32     20.00
   13.7031     47.54     48.44    -27.44     20.00
   13.7133     46.84     48.53    -28.24     20.00
   13.7234     46.77     48.62    -28.40     20.00
   13.7336     47.49     48.71    -27.77     20.00
   13.7438     48.25     48.81    -27.10     20.00
   13.7539     47.50     48.90    -27.94     20.00
   13.7641     47.35     48.99    -28.19     20.00
   13.7743     48.19     49.08    -27.44     20.00
   13.7844     47.52     49.18    -28.20     20.00
   13.7946     47.82     49.27    -28.00     20.00
   13.8048     48.40     49.36    -27.51     20.00
   13.8149     47.52     49.46    -28.48     20.00
   13.8251     48.65     49.55    -27.45     20.00
   13.8352     48.76     49.65    -27.43     20.00
   13.8454     47.05     49.74    -29.24     20.00
   13.8556     48.51     49.84    -27.87     20.00
   13.8657     49.31     49.93    -27.17     20.00
   13.8759     49.69     50.03    -26.88     20.00
   13.8861     47.86     50.12    -28.81     20.00
   13.8962     48.96     50.22    -27.81     20.00
   13.9064     49.12     50.32    -27.74     20.00
   13.9166     48.98     50.41    -27.98     20.00
   13.9267     49.26     50.51    -27.80     20.00
   13.9369     48.95     50.61    -28.20     20.00
   13.9471     49.62     50.70    -27.63     20.00
   13.9572     49.44     50.80    -27.91     20.00
   13.9674     49.03     50.90    -28.42     20.00
   13.9776     49.08     51.00    -28.47     20.00
   13.9877     48.23     51.10    -29.41     20.00
   13.9979     49.93     51.20    -27.81     20.00
   14.0080     50.54     51.29    -27.30     20.00
   14.0182     50.70     51.39    -27.24     20.00
   14.0284     50.96     51.49    -27.08     20.00
   14.0385     49.68     51.59    -28.46     20.00
   14.0487     49.49     51.69    -28.75     20.00
   14.0589     49.45     51.80    -28.89     20.00
   14.0690     50.82     51.90    -27.62     20.00
   14.0792     50.24     52.00    -28.30     20.00
   14.0894     50.60     52.10    -28.04     20.00
   14.0995     51.47     52.20    -27.28     20.00
   14.1097     50.81     52.30    -28.04     20.00
   14.1199     51.70     52.40    -27.25     20.00
   14.1300     50.93     52.51    -28.12     20.00
   14.1402     50.40     52.61    -28.76     20.00
   14.1503     51.54     52.71    -27.72     20.00
   14.1605     52.14     52.82    -27.22     20.00
   14.1707     50.37     52.92    -29.10     20.00
   14.1808     50.60     53.02    -28.97     20.00
   14.1910     52.07     53.13    -27.60     20.00
   14.2012     51.87     53.23    -27.91     20.00
   14.2113     51.91     53.34    -27.97     20.00
   14.2215     52.70     53.44    -27.29     20.00
   14.2317     51.77     53.55    -28.32     20.00
   14.2418     51.55     53.65    -28.65     20.00
   14.2520     52.55     53.76    -27.75     20.00
   14.2622     52.31     53.86    -28.10     20.00
   14.2723     52.83     53.97    -27.69     20.00
   14.2825     53.42     54.08    -27.20     20.00
   14.2927     51.79     54.18    -28.94     20.00
   14.3028     52.22     54.29    -28.62     20.00
   14.3130     53.56     54.40    -27.38     20.00
   14.3231     52.15     54.50    -28.90     20.00
   14.3333     53.34     54.61    -27.82     20.00
   14.3435     54.07     54.72    -27.20     20.00
   14.3536     54.48     54.83    -26.90     20.00
   14.3638     52.92     54.94    -28.56     20.00
   14.3740     54.42     55.05    -27.17     20.00
   14.3841     52.90     55.16    -28.80     20.00
   14.3943     53.60     55.27    -28.21     20.00
   14.4045     53.51     55.38    -28.41     20.00
   14.4146     54.27     55.49    -27.76     20.00
   14.4248     54.23     55.60    -27.91     20.00
   14.4350     54.82     55.71    -27.43     20.00
   14.4451     55.10     55.82    -27.26     20.00
   14.4553     55.16     55.93    -27.32     20.00
   14.4654     55.71     56.04    -26.88     20.00
   14.4756     54.73     56.15    -27.97     20.00
   14.4858     54.33     56.27    -28.48     20.00
   14.4959     55.08     56.38    -27.84     20.00
   14.5061     55.12     56.49    -27.92     20.00
   14.5163     55.04     56.60    -28.11     20.00
   14.5264     55.70     56.72    -27.56     20.00
   14.5366     55.12     56.83    -28.26     20.00
   14.5468     55.58     56.94    -27.91     20.00
   14.5569     55.90     57.06    -27.70     20.00
   14.5671     55.74     57.17    -27.98     20.00
   14.5773     55.29     57.29    -28.54     20.00
   14.5874     57.69     57.40    -26.26     20.00
   14.5976     56.05     57.52    -28.01     20.00
   14.6078     55.65     57.63    -28.53     20.00
   14.6179     56.81     57.75    -27.48     20.00
   14.6281     55.64     57.86    -28.77     20.00
   14.6382     55.82     57.98    -28.71     20.00
   14.6484     56.60     58.10    -28.04     20.00
   14.6586     56.52     58.21    -28.24     20.00
   14.6687     56.75     58.33    -28.13     20.00
   14.6789     57.58     58.45    -27.41     20.00
   14.6891     56.60     58.57    -28.51     20.00
   14.6992     57.30     58.68    -27.93     20.00
   14.7094     58.46     58.80    -26.89     20.00
   14.7196     57.09     58.92    -28.38     20.00
   14.7297     56.94     59.04    -28.64     20.00
   14.7399     57.72     59.16    -27.98     20.00
   14.7501     58.05     59.28    -27.77     20.00
   14.7602     58.80     59.40    -27.14     20.00
   14.7704     58.45     59.52    -27.61     20.00
   14.7805     58.35     59.64    -27.83     20.00
   14.7907     58.65     59.76    -27.65     20.00
   14.8009     58.69     59.88    -27.73     20.00
   14.8110     58.82     60.00    -27.72     20.00
   14.8212     58.97     60.12    -27.69     20.00
   14.8314     57.49     60.24    -29.30     20.00
   14.8415     58.98     60.36    -27.93     20.00
   14.8517     58.37     60.48    -28.66     20.00
   14.8619     58.37     60.61    -28.78     20.00
   14.8720     58.46     60.73    -28.81     20.00
   14.8822     59.57     60.85    -27.83     20.00
   14.8924     60.37     60.97    -27.15     20.00
   14.9025     59.76     61.10    -27.88     20.00
   14.9127     59.49     61.22    -28.28     20.00
   14.9229     60.43     61.35    -27.46     20.00
   14.9330     59.58     61.47    -28.44     20.00
   14.9432     60.77     61.59    -27.37     20.00
   14.9533     60.49     61.72    -27.77     20.00
   14.9635     60.82     61.84    -27.57     20.00
   14.9737     61.58     61.97    -26.93     20.00
   14.9838     60.27     62.09    -28.37     20.00
   14.9940     61.13     62.22    -27.64     20.00
   15.0042     60.39     62.35    -28.50     20.00
   15.0143     60.06     62.47    -28.96     20.00
   15.0245     60.92     62.60    -28.22     20.00
   15.0347     61.65     62.73    -27.62     20.00
   15.0448     61.13     62.85    -28.27     20.00
   15.0550     62.43     62.98    -27.10     20.00
   15.0652     61.32     63.11    -28.33     20.00
   15.0753     63.20     63.24    -26.58     20.00
   15.0855     61.88     63.36    -28.03     20.00
   15.0956     62.12     63.49    -27.92     20.00
   15.1058     62.64     63.62    -27.53     20.00
   15.1160     64.55     63.75    -25.75     20.00
   15.1261     61.21     63.88    -29.21     20.00
   15.1363     63.32     64.01    -27.23     20.00
   15.1465     63.16     64.14    -27.52     20.00
   15.1566     63.35     64.27    -27.46     20.00
   15.1668     62.93     64.40    -28.02     20.00
   15.1770     63.85     64.53    -27.23     20.00
   15.1871     63.66     64.66    -27.55     20.00
   15.1973     64.35     64.79    -26.99     20.00
   15.2075     63.21     64.92    -28.26     20.00
   15.2176     64.68     65.05    -26.92     20.00
   15.2278     63.47     65.19    -28.26     20.00
   15.2380     64.46     65.32    -27.41     20.00
   15.2481     65.23     65.45    -26.77     20.00
   15.2583     65.03     65.58    -27.10     20.00
   15.2684     62.36     65.72    -29.90     20.00
   15.2786     65.55     65.85    -26.85     20.00
   15.2888     64.68     65.98    -27.85     20.00
   15.2989     64.77     66.12    -27.89     20.00
   15.3091     65.53     66.25    -27.27     20.00
   15.3193     65.78     66.39    -27.15     20.00
   15.3294     65.66     66.52    -27.41     20.00
   15.3396     64.16     66.66    -29.04     20.00
   15.3498     66.87     66.79    -26.47     20.00
   15.3599     65.65     66.93    -27.82     20.00
   15.3701     65.80     67.06    -27.81     20.00
   15.3803     66.75     67.20    -26.99     20.00
   15.3904     67.91     67.33    -25.97     20.00
   15.4006     66.09     67.47    -27.93     20.00
   15.4107     67.58     67.61    -26.57     20.00
   15.4209     66.27     67.74    -28.02     20.00
   15.4311     66.18     67.88    -28.25     20.00
   15.4412     66.86     68.02    -27.70     20.00
   15.4514     67.23     68.16    -27.47     20.00
   15.4616     67.98     68.29    -26.86     20.00
   15.4717     67.20     68.43    -27.78     20.00
   15.4819     67.59     68.57    -27.53     20.00
   15.4921     67.02     68.71    -28.24     20.00
   15.5022     68.87     68.85    -26.52     20.00
   15.5124     68.88     68.99    -26.65     20.00
   15.5226     68.45     69.13    -27.22     20.00
   15.5327     69.67     69.27    -26.14     20.00
   15.5429     68.59     69.41    -27.36     20.00
   15.5530     68.65     69.55    -27.44     20.00
   15.5632     69.51     69.69    -26.72     20.00
   15.5734     67.63     69.83    -28.74     20.00
   15.5835     68.59     69.97    -27.92     20.00
   15.5937     69.68     70.11    -26.98     20.00
   15.6039     69.13     70.25    -27.67     20.00
   15.6140     70.55     70.39    -26.39     20.00
   15.6242     70.46     70.54    -26.62     20.00
   15.6344     70.23     70.68    -27.00     20.00
   15.6445     70.79     70.82    -26.58     20.00
   15.6547     71.05     70.96    -26.46     20.00
   15.6649     71.85     71.11    -25.80     20.00
   15.6750     71.67     71.25    -26.13     20.00
   15.6852     70.86     71.39    -27.08     20.00
   15.6954     72.34     71.54    -25.74     20.00
   15.7055     71.23     71.68    -27.00     20.00
   15.7157     71.36     71.83    -27.01     20.00
   15.7258     71.69     71.97    -26.83     20.00
   15.7360     72.26     72.12    -26.40     20.00
   15.7462     71.54     72.26    -27.27     20.00
   15.7563     72.33     72.41    -26.62     20.00
   15.7665     72.30     72.55    -26.80     20.00
   15.7767     72.48     72.70    -26.76     20.00
   15.7868     73.50     72.84    -25.89     20.00
   15.7970     72.38     72.99    -27.16     20.00
   15.8072     72.42     73.14    -27.26     20.00
   15.8173     71.20     73.28    -28.63     20.00
   15.8275     73.99     73.43    -25.99     20.00
   15.8377     73.07     73.58    -27.06     20.00
   15.8478     73.18     73.73    -27.09     20.00
   15.8580     73.64     73.88    -26.78     20.00
   15.8681     73.68     74.02    -26.89     20.00
   15.8783     74.90     74.17    -25.82     20.00
   15.8885     73.46     74.32    -27.41     20.00
   15.8986     74.59     74.47    -26.42     20.00
   15.9088     73.01     74.62    -28.15     20.00
   15.9190     74.55     74.77    -26.76     20.00
   15.9291     75.20     74.92    -26.26     20.00
   15.9393     76.98     75.07    -24.63     20.00
   15.9495     74.58     75.22    -27.18     20.00
   15.9596     75.21     75.37    -26.70     20.00
   15.9698     73.74     75.52    -28.33     20.00
   15.9800     74.98     75.67    -27.24     20.00
   15.9901     74.29     75.82    -28.08     20.00
   16.0003     74.93     75.97    -27.59     20.00
   16.0105     75.27     76.13    -27.40     20.00
   16.0206     76.12     76.28    -26.70     20.00
   16.0308     76.87     76.43    -26.11     20.00
   16.0409     77.32     76.58    -25.81     20.00
   16.0511     77.12     76.73    -26.16     20.00
   16.0613     75.78     76.89    -27.65     20.00
   16.0714     75.66     77.04    -27.93     20.00
   16.0816     76.17     77.19    -27.57     20.00
   16.0918     77.37     77.35    -26.52     20.00
   16.1019     76.13     77.50    -27.92     20.00
   16.1121     78.65     77.66    -25.55     20.00
   16.1223     77.73     77.81    -26.63     20.00
   16.1324     78.61     77.97    -25.90     20.00
   16.1426     78.64     78.12    -26.03     20.00
   16.1528     78.90     78.28    -25.92     20.00
   16.1629     78.53     78.43    -26.45     20.00
   16.1731     79.32     78.59    -25.81     20.00
   16.1832     78.26     78.74    -27.03     20.00
   16.1934     79.92     78.90    -25.53     20.00
   16.2036     79.54     79.06    -26.06     20.00
   16.2137     78.50     79.21    -27.26     20.00
   16.2239     79.88     79.37    -26.04     20.00
   16.2341     79.33     79.53    -26.75     20.00
   16.2442     80.44     79.69    -25.79     20.00
   16.2544     79.68     79.85    -26.71     20.00
   16.2646     80.32     80.00    -26.23     20.00
   16.2747     79.43     80.16    -27.28     20.00
   16.2849     80.71     80.32    -26.16     20.00
   16.2951     80.73     80.48    -26.30     20.00
   16.3052     81.12     80.64    -26.06     20.00
   16.3154     82.61     80.80    -24.74     20.00
   16.3256     82.97     80.96    -24.54     20.00
   16.3357     81.95     81.12    -25.71     20.00
   16.3459     80.82     81.28    -27.01     20.00
   16.3560     83.37     81.44    -24.62     20.00
   16.3662     83.41     81.60    -24.74     20.00
   16.3764     83.37     81.76    -24.94     20.00
   16.3865     82.32     81.92    -26.15     20.00
   16.3967     83.12     82.09    -25.51     20.00
   16.4069     83.41     82.25    -25.38     20.00
   16.4170     86.04     82.41    -22.92     20.00
   16.4272     83.80     82.57    -25.32     20.00
   16.4374     83.35     82.74    -25.93     20.00
   16.4475     83.55     82.90    -25.90     20.00
   16.4577     83.94     83.06    -25.67     20.00
   16.4679     84.63     83.23    -25.14     20.00
   16.4780     84.84     83.39    -25.10     20.00
   16.4882     83.44     83.56    -26.66     20.00
   16.4983     85.43     83.72    -24.84     20.00
   16.5085     86.35     83.89    -24.08     20.00
   16.5187     86.06     84.05    -24.54     20.00
   16.5288     86.60     84.22    -24.16     20.00
   16.5390     87.09     84.38    -23.84     20.00
   16.5492     87.38     84.55    -23.72     20.00
   16.5593     85.24     84.72    -26.02     20.00
   16.5695     86.64     84.88    -24.79     20.00
   16.5797     85.99     85.05    -25.61     20.00
   16.5898     87.32     85.22    -24.45     20.00
   16.6000     87.52     85.39    -24.41     20.00
   16.6102     86.99     85.56    -25.11     20.00
   16.6203     88.66     85.72    -23.61     20.00
   16.6305     89.09     85.89    -23.35     20.00
   16.6407     86.75     86.06    -25.86     20.00
   16.6508     89.04     86.23    -23.74     20.00
   16.6610     88.70     86.40    -24.25     20.00
   16.6711     89.95     86.57    -23.17     20.00
   16.6813     89.57     86.74    -23.72     20.00
   16.6915     90.44     86.92    -23.02     20.00
   16.7016     89.14     87.09    -24.49     20.00
   16.7118     89.53     87.26    -24.28     20.00
   16.7220     90.97     87.43    -23.01     20.00
   16.7321     91.31     87.60    -22.84     20.00
   16.7423     90.61     87.78    -23.71     20.00
   16.7525     90.85     87.95    -23.65     20.00
   16.7626     91.57     88.13    -23.10     20.00
   16.7728     93.96     88.30    -20.89     20.00
   16.7830     91.85     88.48    -23.17     20.00
   16.7931     92.40     88.65    -22.80     20.00
   16.8033     91.68     88.83    -23.69     20.00
   16.8134     91.74     89.00    -23.81     20.00
   16.8236     92.17     89.18    -23.55     20.00
   16.8338     93.46     89.36    -22.44     20.00
   16.8439     94.62     89.53    -21.46     20.00
   16.8541     92.22     89.71    -24.04     20.00
   16.8643     93.71     89.89    -22.73     20.00
   16.8744     94.82     90.07    -21.79     20.00
   16.8846     95.96     90.25    -20.83     20.00
   16.8948     93.36     90.43    -23.61     20.00
   16.9049     93.46     90.61    -23.69     20.00
   16.9151     94.92     90.79    -22.41     20.00
   16.9253     93.77     90.97    -23.75     20.00
   16.9354     94.52     91.15    -23.18     20.00
   16.9456     93.70     91.33    -24.18     20.00
   16.9558     96.22     91.52    -21.84     20.00
   16.9659     93.87     91.70    -24.38     20.00
   16.9761     94.14     91.89    -24.29     20.00
   16.9862     96.45     92.07    -22.16     20.00
   16.9964     96.16     92.25    -22.64     20.00
   17.0066     96.45     92.44    -22.54     20.00
   17.0167     94.98     92.63    -24.19     20.00
   17.0269     97.44     92.81    -21.92     20.00
   17.0371     95.87     93.00    -23.68     20.00
   17.0472     95.77     93.19    -23.97     20.00
   17.0574     97.81     93.38    -22.12     20.00
   17.0676     95.79     93.57    -24.33     20.00
   17.0777     96.07     93.76    -24.24     20.00
   17.0879     97.71     93.95    -22.79     20.00
   17.0981     96.66     94.15    -24.03     20.00
   17.1082     98.39     94.34    -22.49     20.00
   17.1184     97.07     94.53    -24.01     20.00
   17.1285     97.92     94.72    -23.35     20.00
   17.1387     97.24     94.92    -24.23     20.00
   17.1489     98.08     95.12    -23.58     20.00
   17.1590     97.85     95.31    -24.01     20.00
   17.1692     97.97     95.51    -24.09     20.00
   17.1794     98.93     95.71    -23.33     20.00
   17.1895     98.76     95.91    -23.70     20.00
   17.1997     99.51     96.11    -23.15     20.00
   17.2099     98.93     96.31    -23.93     20.00
   17.2200     99.49     96.51    -23.57     20.00
   17.2302    100.34     96.72    -22.93     20.00
   17.2404     99.69     96.92    -23.78     20.00
   17.2505     99.95     97.13    -23.72     20.00
   17.2607     99.41     97.34    -24.47     20.00
   17.2709    100.77     97.55    -23.32     20.00
   17.2810     99.71     97.75    -24.59     20.00
   17.2912     99.45     97.96    -25.06     20.00
   17.3013    100.65     98.17    -24.07     20.00
   17.3115    103.52     98.39    -21.41     20.00
   17.3217    101.67     98.60    -23.48     20.00
   17.3318    101.37     98.82    -23.99     20.00
   17.3420    101.42     99.04    -24.16     20.00
   17.3522    103.11     99.26    -22.69     20.00
   17.3623    102.94     99.47    -23.08     20.00
   17.3725    101.12     99.70    -25.12     20.00
   17.3827    103.38     99.92    -23.09     20.00
   17.3928    103.56    100.15    -23.13     20.00
   17.4030    101.66    100.37    -25.26     20.00
   17.4132    103.21    100.60    -23.94     20.00
   17.4233    103.56    100.83    -23.82     20.00
   17.4335    104.05    101.07    -23.56     20.00
   17.4436    104.54    101.30    -23.31     20.00
   17.4538    104.83    101.54    -23.25     20.00
   17.4640    104.51    101.78    -23.81     20.00
   17.4741    105.77    102.02    -22.79     20.00
   17.4843    105.26    102.26    -23.55     20.00
   17.4945    106.37    102.51    -22.69     20.00
   17.5046    106.53    102.76    -22.77     20.00
   17.5148    106.90    103.01    -22.66     20.00
   17.5250    106.30    103.27    -23.51     20.00
   17.5351    106.57    103.52    -23.50     20.00
   17.5453    106.76    103.79    -23.57     20.00
   17.5555    107.63    104.05    -22.97     20.00
   17.5656    108.16    104.32    -22.71     20.00
   17.5758    108.69    104.59    -22.45     20.00
   17.5859    108.66    104.87    -22.76     20.00
   17.5961    107.60    105.15    -24.10     20.00
   17.6063    109.05    105.44    -22.93     20.00
   17.6164    108.82    105.73    -23.45     20.00
   17.6266    108.87    106.02    -23.70     20.00
   17.6368    110.98    106.33    -21.89     20.00
   17.6469    110.52    106.63    -22.66     20.00
   17.6571    110.83    106.95    -22.66     20.00
   17.6673    112.68    107.27    -21.13     20.00
   17.6774    110.08    107.59    -24.06     20.00
   17.6876    111.91    107.93    -22.56     20.00
   17.6978    112.04    108.27    -22.78     20.00
   17.7079    112.00    108.62    -23.16     20.00
   17.7181    112.41    108.98    -23.11     20.00
   17.7283    114.26    109.35    -21.63     20.00
   17.7384    113.62    109.72    -22.65     20.00
   17.7486    115.96    110.11    -20.70     20.00
   17.7587    114.32    110.51    -22.73     20.00
   17.7689    114.68    110.92    -22.79     20.00
   17.7791    115.05    111.34    -22.84     20.00
   17.7892    115.76    111.78    -22.56     20.00
   17.7994    115.90    112.23    -22.88     20.00
   17.8096    116.96    112.70    -22.28     20.00
   17.8197    116.45    113.17    -23.27     20.00
   17.8299    116.30    113.67    -23.92     20.00
   17.8401    118.69    114.19    -22.04     20.00
   17.8502    118.92    114.72    -22.34     20.00
   17.8604    119.28    115.27    -22.54     20.00
   17.8706    119.30    115.85    -23.09     20.00
   17.8807    122.30    116.44    -20.68     20.00
   17.8909    121.35    117.06    -22.25     20.00
   17.9010    122.26    117.70    -21.98     20.00
   17.9112    123.83    118.36    -21.08     20.00
   17.9214    121.86    119.06    -23.75     20.00
   17.9315    125.52    119.77    -20.80     20.00
   17.9417    125.43    120.53    -21.64     20.00
   17.9519    127.05    121.31    -20.81     20.00
   17.9620    125.30    122.12    -23.36     20.00
   17.9722    128.70    122.96    -20.81     20.00
   17.9824    128.23    123.85    -22.16     20.00
   17.9925    128.60    124.76    -22.70     20.00
   18.0027    129.99    125.71    -22.27     20.00
   18.0129    128.51    126.71    -24.74     20.00
   18.0230    130.68    127.73    -23.60     20.00
   18.0332    133.75    128.81    -21.61     20.00
   18.0434    134.54    129.93    -21.94     20.00
   18.0535    132.16    131.08    -25.47     20.00
   18.0637    138.38    132.30    -20.46     20.00
   18.0738    138.05    133.54    -22.04     20.00
   18.0840    136.73    134.85    -24.67     20.00
   18.0942    139.94    136.21    -22.82     20.00
   18.1043    139.97    137.61    -24.18     20.00
   18.1145    140.60    139.07    -25.02     20.00
   18.1247    141.39    140.59    -25.75     20.00
   18.1348    143.12    142.15    -25.57     20.00
   18.1450    143.57    143.77    -26.75     20.00
   18.1552    147.01    145.46    -25.00     20.00
   18.1653    149.33    147.19    -24.40     20.00
   18.1755    148.59    148.99    -26.94     20.00
   18.1857    150.01    150.85    -27.38     20.00
   18.1958    151.96    152.75    -27.34     20.00
   18.2060    152.26    154.73    -29.02     20.00
   18.2161    155.55    156.75    -27.75     20.00
   18.2263    159.52    158.85    -25.87     20.00
   18.2365    159.87    161.01    -27.68     20.00
   18.2466    161.63    163.20    -28.12     20.00
   18.2568    163.45    165.48    -28.58     20.00
   18.2670    165.02    167.82    -29.34     20.00
   18.2771    169.95    170.19    -26.78     20.00
   18.2873    169.74    172.64    -29.44     20.00
   18.2975    172.27    175.14    -29.42     20.00
   18.3076    176.49    177.67    -27.73     20.00
   18.3178    178.17    180.28    -28.66     20.00
   18.3280    178.71    182.94    -30.77     20.00
   18.3381    181.76    185.62    -30.40     20.00
   18.3483    184.19    188.36    -30.72     20.00
   18.3585    185.96    191.15    -31.74     20.00
   18.3686    189.02    193.95    -31.47     20.00
   18.3788    193.52    196.80    -29.83     20.00
   18.3889    195.41    199.66    -30.80     20.00
   18.3991    199.38    202.57    -29.74     20.00
   18.4093    202.79    205.50    -29.26     20.00
   18.4194    201.00    208.41    -33.96     20.00
   18.4296    208.17    211.36    -29.74     20.00
   18.4398    208.77    214.31    -32.09     20.00
   18.4499    211.36    217.23    -32.41     20.00
   18.4601    216.99    220.16    -29.72     20.00
   18.4703    219.63    223.07    -29.99     20.00
   18.4804    220.00    225.92    -32.47     20.00
   18.4906    225.34    228.76    -29.97     20.00
   18.5008    228.86    231.55    -29.24     20.00
   18.5109    229.23    234.26    -31.58     20.00
   18.5211    235.32    236.93    -28.15     20.00
   18.5312    239.60    239.49    -26.43     20.00
   18.5414    240.02    241.98    -28.51     20.00
   18.5516    245.07    244.38    -25.85     20.00
   18.5617    246.04    246.63    -27.14     20.00
   18.5719    247.41    248.79    -27.92     20.00
   18.5821    250.32    250.81    -27.03     20.00
   18.5922    253.58    252.66    -25.63     20.00
   18.6024    252.22    254.38    -28.71     20.00
   18.6126    255.40    255.93    -27.07     20.00
   18.6227    255.60    257.29    -28.23     20.00
   18.6329    259.06    258.47    -25.96     20.00
   18.6431    260.17    259.47    -25.84     20.00
   18.6532    262.35    260.25    -24.45     20.00
   18.6634    260.38    260.85    -27.01     20.00
   18.6736    264.59    261.23    -23.18     20.00
   18.6837    264.05    261.40    -23.90     20.00
   18.6939    265.33    261.37    -22.58     20.00
   18.7040    263.42    261.13    -24.25     20.00
   18.7142    263.26    260.68    -23.96     20.00
   18.7244    262.31    260.02    -24.26     20.00
   18.7345    264.23    259.18    -21.49     20.00
   18.7447    262.31    258.14    -22.37     20.00
   18.7549    260.56    256.91    -22.90     20.00
   18.7650    260.10    255.52    -21.97     20.00
   18.7752    255.78    253.96    -24.72     20.00
   18.7854    254.77    252.23    -24.01     20.00
   18.7955    252.74    250.38    -24.19     20.00
   18.8057    252.59    248.38    -22.34     20.00
   18.8159    250.50    246.26    -22.31     20.00
   18.8260    245.05    244.05    -25.54     20.00
   18.8362    244.87    241.71    -23.39     20.00
   18.8463    242.99    239.31    -22.87     20.00
   18.8565    236.96    236.81    -26.40     20.00
   18.8667    238.40    234.25    -22.39     20.00
   18.8768    236.30    231.65    -21.89     20.00
   18.8870    230.90    228.98    -24.62     20.00
   18.8972    227.52    226.27    -25.30     20.00
   18.9073    222.18    223.56    -27.93     20.00
   18.9175    222.71    220.80    -24.64     20.00
   18.9277    222.52    218.03    -22.06     20.00
   18.9378    213.66    215.29    -28.17     20.00
   18.9480    212.75    212.52    -26.31     20.00
   18.9582    210.74    209.75    -25.56     20.00
   18.9683    205.03    207.03    -28.55     20.00
   18.9785    202.68    204.30    -28.17     20.00
   18.9887    201.49    201.60    -26.66     20.00
   18.9988    200.21    198.95    -25.29     20.00
   19.0090    193.48    196.31    -29.38     20.00
   19.0191    193.60    193.73    -26.68     20.00
   19.0293    189.98    191.17    -27.74     20.00
   19.0395    187.49    188.65    -27.71     20.00
   19.0496    183.88    186.21    -28.87     20.00
   19.0598    181.85    183.78    -28.48     20.00
   19.0700    178.86    181.41    -29.10     20.00
   19.0801    178.53    179.12    -27.13     20.00
   19.0903    175.89    176.85    -27.51     20.00
   19.1005    174.49    174.65    -26.70     20.00
   19.1106    170.10    172.52    -28.96     20.00
   19.1208    167.34    170.43    -29.63     20.00
   19.1310    167.24    168.39    -27.70     20.00
   19.1411    165.02    166.44    -27.97     20.00
   19.1513    163.83    164.53    -27.24     20.00
   19.1614    160.76    162.69    -28.48     20.00
   19.1716    158.27    160.90    -29.17     20.00
   19.1818    154.26    159.16    -31.45     20.00
   19.1919    156.49    157.50    -27.56     20.00
   19.2021    153.85    155.89    -28.58     20.00
   19.2123    151.23    154.33    -29.64     20.00
   19.2224    152.73    152.84    -26.66     20.00
   19.2326    149.12    151.40    -28.82     20.00
   19.2428    148.21    150.01    -28.35     20.00
   19.2529    147.45    148.69    -27.79     20.00
   19.2631    145.54    147.41    -28.42     20.00
   19.2733    145.38    146.18    -27.35     20.00
   19.2834    145.09    145.02    -26.47     20.00
   19.2936    142.24    143.89    -28.20     20.00
   19.3038    139.46    142.81    -29.90     20.00
   19.3139    140.45    141.79    -27.89     20.00
   19.3241    140.87    140.81    -26.48     20.00
   19.3342    138.20    139.88    -28.22     20.00
   19.3444    135.55    138.98    -29.98     20.00
   19.3546    136.91    138.12    -27.76     20.00
   19.3647    136.28    137.32    -27.58     20.00
   19.3749    135.46    136.54    -27.62     20.00
   19.3851    135.93    135.80    -26.42     20.00
   19.3952    132.53    135.10    -29.12     20.00
   19.4054    135.77    134.43    -25.21     20.00
   19.4156    131.94    133.80    -28.40     20.00
   19.4257    131.68    133.20    -28.06     20.00
   19.4359    132.66    132.62    -26.51     20.00
   19.4461    130.16    132.08    -28.46     20.00
   19.4562    128.70    131.56    -29.41     20.00
   19.4664    130.10    131.07    -27.51     20.00
   19.4765    129.03    130.61    -28.12     20.00
   19.4867    126.95    130.16    -29.76     20.00
   19.4969    129.01    129.74    -27.28     20.00
   19.5070    128.11    129.35    -27.78     20.00
   19.5172    126.24    128.97    -29.27     20.00
   19.5274    127.80    128.61    -27.35     20.00
   19.5375    126.30    128.27    -28.51     20.00
   19.5477    126.05    127.94    -28.44     20.00
   19.5579    128.18    127.64    -26.00     20.00
   19.5680    125.84    127.35    -28.05     20.00
   19.5782    125.20    127.07    -28.42     20.00
   19.5884    125.04    126.81    -28.31     20.00
   19.5985    125.07    126.56    -28.04     20.00
   19.6087    124.62    126.32    -28.25     20.00
   19.6188    124.25    126.10    -28.39     20.00
   19.6290    123.11    125.88    -29.32     20.00
   19.6392    121.75    125.68    -30.48     20.00
   19.6493    123.62    125.49    -28.42     20.00
   19.6595    123.84    125.31    -28.01     20.00
   19.6697    122.63    125.13    -29.05     20.00
   19.6798    123.78    124.97    -27.73     20.00
   19.6900    123.57    124.81    -27.79     20.00
   19.7002    122.70    124.66    -28.51     20.00
   19.7103    122.62    124.52    -28.45     20.00
   19.7205    120.87    124.39    -30.06     20.00
   19.7307    122.79    124.26    -28.02     20.00
   19.7408    121.35    124.14    -29.34     20.00
   19.7510    121.20    124.03    -29.37     20.00
   19.7612    121.15    123.92    -29.32     20.00
   19.7713    121.82    123.82    -28.54     20.00
   19.7815    122.11    123.72    -28.16     20.00
   19.7916    121.83    123.64    -28.35     20.00
   19.8018    120.48    123.55    -29.62     20.00
   19.8120    121.90    123.47    -28.12     20.00
   19.8221    121.38    123.40    -28.57     20.00
   19.8323    121.83    123.34    -28.05     20.00
   19.8425    122.03    123.28    -27.79     20.00
   19.8526    120.23    123.23    -29.54     20.00
   19.8628    120.60    123.18    -29.12     20.00
   19.8730    122.33    123.14    -27.35     20.00
   19.8831    120.13    123.10    -29.52     20.00
   19.8933    122.29    123.07    -27.33     20.00
   19.9035    120.10    123.05    -29.49     20.00
   19.9136    119.10    123.03    -30.48     20.00
   19.9238    122.48    123.02    -27.09     20.00
   19.9339    121.30    123.02    -28.27     20.00
   19.9441    122.37    123.03    -27.20     20.00
   19.9543    121.45    123.04    -28.14     20.00
   19.9644    122.35    123.06    -27.26     20.00
   19.9746    120.93    123.09    -28.71     20.00
   19.9848    121.38    123.13    -28.29     20.00
   19.9949    123.24    123.17    -26.48     20.00
   20.0051    122.49    123.23    -27.28     20.00
   20.0153    122.13    123.29    -27.71     20.00
   20.0254    122.98    123.37    -26.93     20.00
   20.0356    123.73    123.45    -26.27     20.00
   20.0458    123.51    123.55    -26.58     20.00
   20.0559    123.84    123.65    -26.36     20.00
   20.0661    123.23    123.77    -27.09     20.00
   20.0763    125.08    123.90    -25.37     20.00
   20.0864    123.84    124.04    -26.75     20.00
   20.0966    124.31    124.20    -26.43     20.00
   20.1067    125.95    124.36    -24.96     20.00
   20.1169    127.44    124.54    -23.65     20.00
   20.1271    125.60    124.74    -25.68     20.00
   20.1372    127.70    124.95    -23.79     20.00
   20.1474    125.31    125.17    -26.40     20.00
   20.1576    126.93    125.41    -25.02     20.00
   20.1677    127.48    125.66    -24.72     20.00
   20.1779    126.52    125.92    -25.95     20.00
   20.1881    125.91    126.21    -26.84     20.00
   20.1982    127.25    126.50    -25.80     20.00
   20.2084    128.56    126.82    -24.80     20.00
   20.2186    128.29    127.15    -25.40     20.00
   20.2287    129.52    127.49    -24.52     20.00
   20.2389    128.39    127.85    -26.01     20.00
   20.2490    128.66    128.23    -26.11     20.00
   20.2592    129.63    128.62    -25.54     20.00
   20.2694    131.69    129.03    -23.89     20.00
   20.2795    129.80    129.45    -26.20     20.00
   20.2897    132.46    129.89    -23.98     20.00
   20.2999    131.44    130.35    -25.46     20.00
   20.3100    132.35    130.81    -25.01     20.00
   20.3202    132.74    131.30    -25.10     20.00
   20.3304    134.18    131.79    -24.16     20.00
   20.3405    133.52    132.30    -25.32     20.00
   20.3507    135.44    132.82    -23.92     20.00
   20.3609    134.66    133.35    -25.24     20.00
   20.3710    134.56    133.88    -25.87     20.00
   20.3812    135.05    134.43    -25.93     20.00
   20.3914    137.85    134.99    -23.69     20.00
   20.4015    136.38    135.55    -25.71     20.00
   20.4117    138.81    136.11    -23.85     20.00
   20.4218    138.01    136.67    -25.21     20.00
   20.4320    136.68    137.24    -27.11     20.00
   20.4422    138.75    137.81    -25.60     20.00
   20.4523    138.81    138.36    -26.10     20.00
   20.4625    138.96    138.92    -26.50     20.00
   20.4727    137.91    139.46    -28.10     20.00
   20.4828    138.45    139.99    -28.09     20.00
   20.4930    139.99    140.51    -27.07     20.00
   20.5032    141.92    141.01    -25.64     20.00
   20.5133    141.43    141.49    -26.61     20.00
   20.5235    139.29    141.95    -29.20     20.00
   20.5337    141.81    142.37    -27.11     20.00
   20.5438    144.23    142.77    -25.08     20.00
   20.5540    140.87    143.13    -28.80     20.00
   20.5641    141.98    143.45    -28.02     20.00
   20.5743    141.05    143.73    -29.23     20.00
   20.5845    142.90    143.97    -27.62     20.00
   20.5946    142.93    144.17    -27.78     20.00
   20.6048    143.37    144.31    -27.49     20.00
   20.6150    143.47    144.41    -27.48     20.00
   20.6251    142.91    144.45    -28.08     20.00
   20.6353    145.88    144.44    -25.10     20.00
   20.6455    141.74    144.37    -29.18     20.00
   20.6556    143.39    144.25    -27.41     20.00
   20.6658    142.73    144.08    -27.89     20.00
   20.6760    141.88    143.85    -28.52     20.00
   20.6861    144.66    143.58    -25.46     20.00
   20.6963    141.52    143.25    -28.28     20.00
   20.7065    139.95    142.87    -29.47     20.00
   20.7166    142.08    142.46    -26.92     20.00
   20.7268    141.92    142.00    -26.62     20.00
   20.7369    141.17    141.50    -26.88     20.00
   20.7471    140.12    140.96    -27.39     20.00
   20.7573    141.90    140.40    -25.04     20.00
   20.7674    138.21    139.80    -28.14     20.00
   20.7776    139.66    139.18    -26.07     20.00
   20.7878    138.29    138.53    -26.79     20.00
   20.7979    138.26    137.87    -26.16     20.00
   20.8081    138.03    137.19    -25.71     20.00
   20.8183    139.74    136.50    -23.30     20.00
   20.8284    136.05    135.80    -26.30     20.00
   20.8386    137.85    135.09    -23.78     20.00
   20.8488    136.39    134.37    -24.53     20.00
   20.8589    135.55    133.66    -24.65     20.00
   20.8691    133.71    132.94    -25.77     20.00
   20.8792    135.09    132.23    -23.68     20.00
   20.8894    132.79    131.51    -25.27     20.00
   20.8996    133.49    130.80    -23.86     20.00
   20.9097    131.47    130.10    -25.18     20.00
   20.9199    130.22    129.41    -25.74     20.00
   20.9301    131.18    128.72    -24.09     20.00
   20.9402    129.86    128.05    -24.74     20.00
   20.9504    128.45    127.39    -25.49     20.00
   20.9606    128.60    126.74    -24.69     20.00
   20.9707    128.24    126.11    -24.41     20.00
   20.9809    127.53    125.48    -24.50     20.00
   20.9911    127.55    124.87    -23.87     20.00
   21.0012    127.60    124.29    -23.23     20.00
   21.0114    123.86    123.71    -26.39     20.00
   21.0216    125.27    123.14    -24.42     20.00
   21.0317    125.15    122.60    -24.00     20.00
   21.0419    122.88    122.07    -25.74     20.00
   21.0520    123.05    121.56    -25.06     20.00
   21.0622    122.55    121.06    -25.06     20.00
   21.0724    121.80    120.58    -25.33     20.00
   21.0825    120.53    120.12    -26.14     20.00
   21.0927    120.51    119.68    -25.71     20.00
   21.1029    118.27    119.25    -27.52     20.00
   21.1130    118.57    118.83    -26.81     20.00
   21.1232    119.68    118.44    -25.30     20.00
   21.1334    117.73    118.05    -26.87     20.00
   21.1435    117.32    117.69    -26.92     20.00
   21.1537    119.56    117.34    -24.32     20.00
   21.1639    116.58    117.00    -26.97     20.00
   21.1740    118.32    116.69    -24.91     20.00
   21.1842    114.73    116.38    -28.20     20.00
   21.1943    115.18    116.09    -27.46     20.00
   21.2045    114.69    115.81    -27.67     20.00
   21.2147    113.87    115.55    -28.22     20.00
   21.2248    114.59    115.30    -27.26     20.00
   21.2350    112.92    115.06    -28.69     20.00
   21.2452    112.21    114.84    -29.17     20.00
   21.2553    111.26    114.63    -29.91     20.00
   21.2655    113.30    114.43    -27.67     20.00
   21.2757    111.03    114.24    -29.76     20.00
   21.2858    111.13    114.07    -29.48     20.00
   21.2960    111.35    113.90    -29.10     20.00
   21.3062    112.49    113.75    -27.80     20.00
   21.3163    110.02    113.60    -30.13     20.00
   21.3265    111.57    113.47    -28.45     20.00
   21.3366    111.16    113.35    -28.74     20.00
   21.3468    110.00    113.24    -29.78     20.00
   21.3570    110.71    113.14    -28.97     20.00
   21.3671    111.13    113.04    -28.46     20.00
   21.3773    108.66    112.96    -30.85     20.00
   21.3875    109.32    112.89    -30.11     20.00
   21.3976    109.70    112.82    -29.67     20.00
   21.4078    108.38    112.77    -30.94     20.00
   21.4180    108.01    112.73    -31.26     20.00
   21.4281    108.74    112.69    -30.50     20.00
   21.4383    108.36    112.66    -30.85     20.00
   21.4485    109.12    112.65    -30.07     20.00
   21.4586    108.87    112.64    -30.31     20.00
   21.4688    107.73    112.64    -31.45     20.00
   21.4790    109.02    112.65    -30.18     20.00
   21.4891    108.65    112.67    -30.56     20.00
   21.4993    108.02    112.70    -31.22     20.00
   21.5094    107.66    112.74    -31.62     20.00
   21.5196    109.92    112.79    -29.41     20.00
   21.5298    107.02    112.84    -32.37     20.00
   21.5399    108.95    112.91    -30.51     20.00
   21.5501    107.45    112.99    -32.09     20.00
   21.5603    108.20    113.08    -31.42     20.00
   21.5704    108.57    113.18    -31.15     20.00
   21.5806    108.81    113.29    -31.02     20.00
   21.5908    107.53    113.41    -32.42     20.00
   21.6009    109.61    113.54    -30.47     20.00
   21.6111    109.70    113.68    -30.53     20.00
   21.6213    108.62    113.83    -31.76     20.00
   21.6314    111.02    114.00    -29.52     20.00
   21.6416    109.93    114.18    -30.79     20.00
   21.6517    109.76    114.36    -31.15     20.00
   21.6619    111.65    114.57    -29.46     20.00
   21.6721    111.77    114.78    -29.56     20.00
   21.6822    112.92    115.01    -28.63     20.00
   21.6924    110.55    115.25    -31.24     20.00
   21.7026    111.58    115.50    -30.47     20.00
   21.7127    111.13    115.76    -31.18     20.00
   21.7229    112.95    116.05    -29.64     20.00
   21.7331    112.40    116.34    -30.49     20.00
   21.7432    112.62    116.65    -30.57     20.00
   21.7534    115.59    116.97    -27.93     20.00
   21.7636    114.68    117.31    -29.18     20.00
   21.7737    114.77    117.66    -29.44     20.00
   21.7839    113.82    118.03    -30.76     20.00
   21.7941    116.76    118.41    -28.20     20.00
   21.8042    114.77    118.81    -30.58     20.00
   21.8144    116.55    119.22    -29.22     20.00
   21.8245    119.32    119.65    -26.88     20.00
   21.8347    118.15    120.10    -28.49     20.00
   21.8449    119.43    120.56    -27.68     20.00
   21.8550    120.32    121.03    -27.26     20.00
   21.8652    120.45    121.53    -27.63     20.00
   21.8754    121.97    122.04    -26.62     20.00
   21.8855    123.05    122.57    -26.06     20.00
   21.8957    121.03    123.11    -28.63     20.00
   21.9059    123.65    123.67    -26.57     20.00
   21.9160    124.95    124.24    -25.84     20.00
   21.9262    122.93    124.84    -28.45     20.00
   21.9364    125.87    125.45    -26.13     20.00
   21.9465    125.91    126.07    -26.71     20.00
   21.9567    125.62    126.72    -27.64     20.00
   21.9668    127.79    127.37    -26.12     20.00
   21.9770    128.89    128.05    -25.70     20.00
   21.9872    129.70    128.74    -25.58     20.00
   21.9973    129.22    129.44    -26.76     20.00
   22.0075    131.57    130.16    -25.14     20.00
   22.0177    132.11    130.90    -25.34     20.00
   22.0278    131.55    131.65    -26.64     20.00
   22.0380    134.21    132.42    -24.75     20.00
   22.0482    133.66    133.20    -26.08     20.00
   22.0583    136.04    133.99    -24.49     20.00
   22.0685    137.98    134.80    -23.36     20.00
   22.0787    134.93    135.62    -27.24     20.00
   22.0888    137.64    136.45    -25.35     20.00
   22.0990    140.15    137.29    -23.69     20.00
   22.1092    138.26    138.15    -26.44     20.00
   22.1193    141.15    139.01    -24.41     20.00
   22.1295    143.61    139.89    -22.83     20.00
   22.1396    142.77    140.77    -24.55     20.00
   22.1498    144.09    141.67    -24.12     20.00
   22.1600    145.30    142.57    -23.82     20.00
   22.1701    146.63    143.47    -23.39     20.00
   22.1803    147.18    144.39    -23.75     20.00
   22.1905    149.40    145.30    -22.45     20.00
   22.2006    148.58    146.22    -24.18     20.00
   22.2108    150.59    147.14    -23.10     20.00
   22.2210    151.31    148.07    -23.30     20.00
   22.2311    152.07    148.98    -23.46     20.00
   22.2413    154.62    149.90    -21.83     20.00
   22.2515    152.99    150.82    -24.38     20.00
   22.2616    154.74    151.73    -23.53     20.00
   22.2718    155.34    152.63    -23.84     20.00
   22.2819    155.99    153.52    -24.08     20.00
   22.2921    157.27    154.41    -23.69     20.00
   22.3023    159.39    155.29    -22.44     20.00
   22.3124    160.67    156.14    -22.02     20.00
   22.3226    160.41    156.99    -23.13     20.00
   22.3328    161.66    157.82    -22.70     20.00
   22.3429    161.96    158.62    -23.21     20.00
   22.3531    161.70    159.41    -24.25     20.00
   22.3633    165.29    160.17    -21.43     20.00
   22.3734    164.57    160.90    -22.87     20.00
   22.3836    162.15    161.61    -26.00     20.00
   22.3938    165.88    162.28    -22.95     20.00
   22.4039    164.37    162.92    -25.10     20.00
   22.4141    164.54    163.53    -25.54     20.00
   22.4243    166.95    164.10    -23.70     20.00
   22.4344    165.58    164.63    -25.60     20.00
   22.4446    165.31    165.12    -26.36     20.00
   22.4547    167.65    165.56    -24.46     20.00
   22.4649    168.18    165.96    -24.33     20.00
   22.4751    167.10    166.32    -25.77     20.00
   22.4852    168.85    166.62    -24.32     20.00
   22.4954    168.16    166.88    -25.26     20.00
   22.5056    165.72    167.08    -27.90     20.00
   22.5157    166.80    167.23    -26.97     20.00
   22.5259    166.76    167.32    -27.11     20.00
   22.5361    166.27    167.36    -27.64     20.00
   22.5462    166.61    167.35    -27.28     20.00
   22.5564    165.86    167.27    -27.96     20.00
   22.5666    165.70    167.14    -27.99     20.00
   22.5767    165.10    166.96    -28.41     20.00
   22.5869    165.79    166.72    -27.47     20.00
   22.5970    164.77    166.42    -28.20     20.00
   22.6072    165.73    166.07    -26.88     20.00
   22.6174    164.21    165.66    -27.99     20.00
   22.6275    160.04    165.20    -31.70     20.00
   22.6377    162.68    164.68    -28.55     20.00
   22.6479    162.16    164.11    -28.50     20.00
   22.6580    157.00    163.50    -33.04     20.00
   22.6682    159.38    162.83    -30.00     20.00
   22.6784    160.71    162.12    -27.95     20.00
   22.6885    158.01    161.36    -29.90     20.00
   22.6987    157.64    160.56    -29.47     20.00
   22.7089    158.26    159.72    -28.00     20.00
   22.7190    154.61    158.84    -30.78     20.00
   22.7292    155.97    157.92    -28.50     20.00
   22.7394    153.21    156.97    -30.30     20.00
   22.7495    152.28    155.99    -30.26     20.00
   22.7597    153.38    154.97    -28.14     20.00
   22.7698    150.95    153.94    -29.53     20.00
   22.7800    149.43    152.87    -29.98     20.00
   22.7902    150.22    151.77    -28.10     20.00
   22.8003    147.21    150.67    -30.00     20.00
   22.8105    147.10    149.53    -28.98     20.00
   22.8207    145.58    148.38    -29.35     20.00
   22.8308    145.50    147.22    -28.27     20.00
   22.8410    144.42    146.04    -28.17     20.00
   22.8512    143.12    144.85    -28.27     20.00
   22.8613    143.00    143.66    -27.20     20.00
   22.8715    139.74    142.45    -29.25     20.00
   22.8817    140.04    141.23    -27.73     20.00
   22.8918    138.21    140.02    -28.35     20.00
   22.9020    136.76    138.79    -28.58     20.00
   22.9121    134.75    137.58    -29.37     20.00
   22.9223    134.79    136.35    -28.11     20.00
   22.9325    134.43    135.13    -27.24     20.00
   22.9426    133.70    133.91    -26.76     20.00
   22.9528    133.60    132.69    -25.64     20.00
   22.9630    131.48    131.48    -26.54     20.00
   22.9731    130.63    130.28    -26.19     20.00
   22.9833    128.86    129.08    -26.76     20.00
   22.9935    128.37    127.88    -26.06     20.00
   23.0036    127.48    126.70    -25.77     20.00
   23.0138    126.45    125.53    -25.62     20.00
   23.0240    124.95    124.36    -25.95     20.00
   23.0341    124.84    123.21    -24.92     20.00
   23.0443    123.43    122.06    -25.18     20.00
   23.0545    120.38    120.93    -27.10     20.00
   23.0646    118.48    119.82    -27.89     20.00
   23.0748    120.26    118.71    -25.00     20.00
   23.0849    118.26    117.63    -25.91     20.00
   23.0951    118.82    116.55    -24.27     20.00
   23.1053    117.21    115.48    -24.81     20.00
   23.1154    116.36    114.44    -24.62     20.00
   23.1256    115.26    113.40    -24.69     20.00
   23.1358    114.45    112.38    -24.48     20.00
   23.1459    111.09    111.38    -26.84     20.00
   23.1561    113.43    110.39    -23.51     20.00
   23.1663    112.12    109.42    -23.85     20.00
   23.1764    110.63    108.47    -24.39     20.00
   23.1866    109.24    107.53    -24.84     20.00
   23.1968    110.14    106.60    -23.01     20.00
   23.2069    108.06    105.71    -24.19     20.00
   23.2171    107.53    104.81    -23.83     20.00
   23.2272    105.58    103.95    -24.91     20.00
   23.2374    106.06    103.09    -23.57     20.00
   23.2476    105.22    102.25    -23.57     20.00
   23.2577    105.48    101.43    -22.49     20.00
   23.2679    103.52    100.62    -23.64     20.00
   23.2781    103.68     99.83    -22.69     20.00
   23.2882    101.80     99.06    -23.80     20.00
   23.2984    101.52     98.30    -23.32     20.00
   23.3086    101.52     97.55    -22.58     20.00
   23.3187    100.26     96.83    -23.12     20.00
   23.3289     99.48     96.12    -23.18     20.00
   23.3391     97.65     95.42    -24.32     20.00
   23.3492     97.57     94.74    -23.72     20.00
   23.3594     97.30     94.08    -23.32     20.00
   23.3695     96.94     93.43    -23.04     20.00
   23.3797     95.73     92.79    -23.61     20.00
   23.3899     95.29     92.17    -23.43     20.00
   23.4000     95.63     91.57    -22.48     20.00
   23.4102     94.84     90.97    -22.68     20.00
   23.4204     92.70     90.39    -24.24     20.00
   23.4305     92.03     89.83    -24.35     20.00
   23.4407     92.40     89.28    -23.42     20.00
   23.4509     91.76     88.74    -23.52     20.00
   23.4610     89.73     88.21    -25.03     20.00
   23.4712     89.80     87.70    -24.44     20.00
   23.4814     88.84     87.19    -24.90     20.00
   23.4915     88.07     86.70    -25.18     20.00
   23.5017     87.64     86.22    -25.13     20.00
   23.5119     88.37     85.75    -23.93     20.00
   23.5220     86.87     85.30    -24.97     20.00
   23.5322     87.07     84.85    -24.33     20.00
   23.5423     85.73     84.42    -25.23     20.00
   23.5525     84.83     83.99    -25.71     20.00
   23.5627     86.21     83.57    -23.91     20.00
   23.5728     83.85     83.17    -25.86     20.00
   23.5830     83.65     82.77    -25.67     20.00
   23.5932     83.86     82.38    -25.07     20.00
   23.6033     81.84     82.00    -26.71     20.00
   23.6135     83.49     81.63    -24.68     20.00
   23.6237     82.34     81.26    -25.47     20.00
   23.6338     81.30     80.91    -26.16     20.00
   23.6440     81.58     80.56    -25.53     20.00
   23.6542     80.73     80.22    -26.04     20.00
   23.6643     79.93     79.89    -26.51     20.00
   23.6745     80.52     79.56    -25.59     20.00
   23.6846     79.64     79.25    -26.15     20.00
   23.6948     77.52     78.93    -27.96     20.00
   23.7050     78.87     78.62    -26.30     20.00
   23.7151     78.72     78.32    -26.15     20.00
   23.7253     77.88     78.03    -26.69     20.00
   23.7355     77.35     77.74    -26.93     20.00
   23.7456     76.46     77.46    -27.54     20.00
   23.7558     76.88     77.18    -26.84     20.00
   23.7660     75.28     76.90    -28.17     20.00
   23.7761     76.46     76.64    -26.72     20.00
   23.7863     74.95     76.37    -27.97     20.00
   23.7965     75.65     76.11    -27.01     20.00
   23.8066     74.12     75.86    -28.28     20.00
   23.8168     74.74     75.60    -27.41     20.00
   23.8270     74.65     75.36    -27.25     20.00
   23.8371     72.68     75.11    -28.98     20.00
   23.8473     73.66     74.87    -27.76     20.00
   23.8574     74.59     74.64    -26.60     20.00
   23.8676     73.09     74.41    -27.86     20.00
   23.8778     72.48     74.18    -28.24     20.00
   23.8879     71.75     73.95    -28.75     20.00
   23.8981     71.52     73.73    -28.75     20.00
   23.9083     73.04     73.51    -27.01     20.00
   23.9184     70.55     73.29    -29.29     20.00
   23.9286     71.27     73.08    -28.35     20.00
   23.9388     71.84     72.86    -27.57     20.00
   23.9489     70.58     72.66    -28.62     20.00
   23.9591     71.04     72.45    -27.96     20.00
   23.9693     69.40     72.24    -29.39     20.00
   23.9794     70.84     72.04    -27.75     20.00
   23.9896     70.18     71.84    -28.21     20.00
   23.9997     69.37     71.65    -28.82     20.00
   24.0099     68.68     71.45    -29.32     20.00
   24.0201     68.11     71.26    -29.69     20.00
   24.0302     68.95     71.06    -28.66     20.00
   24.0404     67.29     70.87    -30.13     20.00
   24.0506     67.87     70.69    -29.36     20.00
   24.0607     67.23     70.50    -29.82     20.00
   24.0709     68.45     70.31    -28.41     20.00
   24.0811     67.96     70.13    -28.72     20.00
   24.0912     66.30     69.95    -30.20     20.00
   24.1014     67.23     69.77    -29.09     20.00
   24.1116     67.16     69.59    -28.98     20.00
   24.1217     65.06     69.41    -30.90     20.00
   24.1319     66.78     69.24    -29.00     20.00
   24.1421     65.67     69.06    -29.94     20.00
   24.1522     64.66     68.89    -30.78     20.00
   24.1624     64.82     68.72    -30.44     20.00
   24.1725     66.37     68.55    -28.72     20.00
   24.1827     64.34     68.38    -30.58     20.00
   24.1929     65.01     68.21    -29.74     20.00
   24.2030     65.30     68.04    -29.29     20.00
   24.2132     64.82     67.88    -29.60     20.00
   24.2234     64.62     67.71    -29.64     20.00
   24.2335     64.38     67.55    -29.71     20.00
   24.2437     63.76     67.38    -30.17     20.00
   24.2539     65.41     67.22    -28.36     20.00
   24.2640     63.99     67.06    -29.62     20.00
   24.2742     64.39     66.90    -29.06     20.00
   24.2844     63.10     66.74    -30.19     20.00
   24.2945     62.99     66.58    -30.14     20.00
   24.3047     62.66     66.43    -30.31     20.00
   24.3148     63.30     66.27    -29.52     20.00
   24.3250     63.27     66.11    -29.39     20.00
   24.3352     62.35     65.96    -30.15     20.00
   24.3453     63.52     65.81    -28.83     20.00
   24.3555     62.17     65.65    -30.03     20.00
   24.3657     62.71     65.50    -29.34     20.00
   24.3758     61.70     65.35    -30.20     20.00
   24.3860     62.61     65.20    -29.13     20.00
   24.3962     62.45     65.05    -29.14     20.00
   24.4063     61.95     64.90    -29.50     20.00
   24.4165     60.41     64.75    -30.89     20.00
   24.4267     60.82     64.60    -30.33     20.00
   24.4368     61.91     64.46    -29.09     20.00
   24.4470     60.82     64.31    -30.04     20.00
   24.4572     60.52     64.16    -30.19     20.00
   24.4673     61.72     64.02    -28.85     20.00
   24.4775     60.99     63.88    -29.43     20.00
   24.4876     62.17     63.73    -28.11     20.00
   24.4978     61.18     63.59    -28.96     20.00
   24.5080     60.79     63.45    -29.20     20.00
   24.5181     60.87     63.31    -28.98     20.00
   24.5283     59.51     63.17    -30.20     20.00
   24.5385     59.23     63.03    -30.34     20.00
   24.5486     59.77     62.89    -29.66     20.00
   24.5588     60.26     62.75    -29.03     20.00
   24.5690     59.41     62.61    -29.74     20.00
   24.5791     60.78     62.47    -28.24     20.00
   24.5893     59.10     62.33    -29.78     20.00
   24.5995     58.72     62.20    -30.02     20.00
   24.6096     58.80     62.06    -29.81     20.00
   24.6198     58.73     61.93    -29.74     20.00
   24.6299     59.30     61.79    -29.04     20.00
   24.6401     59.15     61.66    -29.06     20.00
   24.6503     58.74     61.53    -29.33     20.00
   24.6604     58.07     61.39    -29.87     20.00
   24.6706     58.56     61.26    -29.25     20.00
   24.6808     58.26     61.13    -29.41     20.00
   24.6909     57.76     61.00    -29.78     20.00
   24.7011     57.84     60.87    -29.57     20.00
   24.7113     58.00     60.74    -29.28     20.00
   24.7214     58.72     60.61    -28.43     20.00
   24.7316     58.77     60.48    -28.25     20.00
   24.7418     58.07     60.35    -28.83     20.00
   24.7519     57.15     60.22    -29.62     20.00
   24.7621     58.06     60.09    -28.58     20.00
   24.7723     58.59     59.97    -27.92     20.00
   24.7824     58.39     59.84    -28.00     20.00
   24.7926     58.71     59.72    -27.55     20.00
   24.8027     56.71     59.59    -29.43     20.00
   24.8129     57.52     59.47    -28.49     20.00
   24.8231     56.81     59.34    -29.08     20.00
   24.8332     57.24     59.22    -28.52     20.00
   24.8434     58.26     59.09    -27.38     20.00
   24.8536     56.95     58.97    -28.57     20.00
   24.8637     56.91     58.85    -28.49     20.00
   24.8739     56.48     58.73    -28.79     20.00
   24.8841     55.85     58.61    -29.30     20.00
   24.8942     57.05     58.49    -27.98     20.00
   24.9044     56.40     58.37    -28.51     20.00
   24.9146     56.07     58.25    -28.72     20.00
   24.9247     56.97     58.13    -27.70     20.00
   24.9349     56.67     58.01    -27.88     20.00
   24.9450     56.23     57.89    -28.21     20.00
   24.9552     55.54     57.77    -28.78     20.00
   24.9654     55.41     57.65    -28.79     20.00
   24.9755     56.21     57.54    -27.87     20.00
   24.9857     55.31     57.42    -28.66     20.00
   24.9959     55.90     57.30    -27.95     20.00
   25.0060     56.26     57.19    -27.48     20.00
   25.0162     55.70     57.07    -27.92     20.00
   25.0264     56.30     56.96    -27.20     20.00
   25.0365     56.90     56.85    -26.49     20.00
   25.0467     55.42     56.73    -27.86     20.00
   25.0569     55.59     56.62    -27.57     20.00
   25.0670     56.15     56.51    -26.90     20.00
   25.0772     54.82     56.39    -28.12     20.00
   25.0874     54.63     56.28    -28.20     20.00
   25.0975     56.06     56.17    -26.66     20.00
   25.1077     56.18     56.06    -26.42     20.00
   25.1178     55.29     55.95    -27.20     20.00
   25.1280     55.08     55.84    -27.30     20.00
   25.1382     55.68     55.73    -26.59     20.00
   25.1483     55.08     55.62    -27.09     20.00
   25.1585     55.95     55.51    -26.11     20.00
   25.1687     54.90     55.40    -27.05     20.00
   25.1788     54.46     55.29    -27.38     20.00
   25.1890     54.67     55.19    -27.06     20.00
   25.1992     54.12     55.08    -27.51     20.00
   25.2093     54.20     54.97    -27.32     20.00
   25.2195     54.96     54.87    -26.45     20.00
   25.2297     54.35     54.76    -26.96     20.00
   25.2398     54.27     54.66    -26.93     20.00
   25.2500     53.99     54.55    -27.11     20.00
   25.2601     54.64     54.45    -26.35     20.00
   25.2703     55.20     54.34    -25.69     20.00
   25.2805     54.24     54.24    -26.54     20.00
   25.2906     53.97     54.14    -26.71     20.00
   25.3008     54.55     54.03    -26.03     20.00
   25.3110     53.65     53.93    -26.83     20.00
   25.3211     53.48     53.83    -26.89     20.00
   25.3313     54.29     53.73    -25.98     20.00
   25.3415     54.34     53.63    -25.83     20.00
   25.3516     54.26     53.52    -25.81     20.00
   25.3618     54.45     53.42    -25.52     20.00
   25.3720     55.15     53.32    -24.72     20.00
   25.3821     53.03     53.23    -26.74     20.00
   25.3923     55.10     53.13    -24.57     20.00
   25.4024     52.35     53.03    -27.22     20.00
   25.4126     53.65     52.93    -25.83     20.00
   25.4228     53.59     52.83    -25.79     20.00
   25.4329     54.16     52.73    -25.12     20.00
   25.4431     53.32     52.64    -25.86     20.00
   25.4533     53.88     52.54    -25.21     20.00
   25.4634     53.01     52.44    -25.98     20.00
   25.4736     54.15     52.35    -24.74     20.00
   25.4838     53.34     52.25    -25.46     20.00
   25.4939     52.79     52.16    -25.91     20.00
   25.5041     53.41     52.06    -25.20     20.00
   25.5143     54.99     51.97    -23.53     20.00
   25.5244     53.34     51.88    -25.08     20.00
   25.5346     53.74     51.78    -24.59     20.00
   25.5448     53.50     51.69    -24.74     20.00
   25.5549     52.04     51.60    -26.10     20.00
   25.5651     53.77     51.51    -24.28     20.00
   25.5752     52.99     51.41    -24.97     20.00
   25.5854     53.48     51.32    -24.39     20.00
   25.5956     52.95     51.23    -24.83     20.00
   25.6057     53.26     51.14    -24.43     20.00
   25.6159     53.15     51.05    -24.45     20.00
   25.6261     52.51     50.96    -25.00     20.00
   25.6362     53.05     50.87    -24.37     20.00
   25.6464     52.91     50.78    -24.42     20.00
   25.6566     52.18     50.69    -25.06     20.00
   25.6667     53.98     50.61    -23.17     20.00
   25.6769     52.73     50.52    -24.34     20.00
   25.6871     52.27     50.43    -24.71     20.00
   25.6972     52.49     50.35    -24.40     20.00
   25.7074     52.62     50.26    -24.19     20.00
   25.7175     52.38     50.17    -24.34     20.00
   25.7277     52.11     50.09    -24.52     20.00
   25.7379     53.60     50.00    -22.95     20.00
   25.7480     52.71     49.92    -23.75     20.00
   25.7582     52.07     49.83    -24.31     20.00
   25.7684     52.85     49.75    -23.45     20.00
   25.7785     51.74     49.67    -24.47     20.00
   25.7887     51.18     49.58    -24.95     20.00
   25.7989     52.31     49.50    -23.74     20.00
   25.8090     52.40     49.42    -23.56     20.00
   25.8192     51.95     49.34    -23.93     20.00
   25.8294     52.60     49.25    -23.20     20.00
   25.8395     51.57     49.17    -24.15     20.00
   25.8497     51.82     49.09    -23.82     20.00
   25.8599     50.83     49.01    -24.73     20.00
   25.8700     51.16     48.93    -24.32     20.00
   25.8802     50.69     48.85    -24.71     20.00
   25.8903     50.66     48.78    -24.66     20.00
   25.9005     50.86     48.70    -24.38     20.00
   25.9107     51.37     48.62    -23.79     20.00
   25.9208     51.28     48.54    -23.81     20.00
   25.9310     51.26     48.46    -23.75     20.00
   25.9412     50.91     48.39    -24.02     20.00
   25.9513     51.48     48.31    -23.38     20.00
   25.9615     50.77     48.23    -24.01     20.00
   25.9717     50.14     48.16    -24.56     20.00
   25.9818     50.80     48.08    -23.83     20.00
   25.9920     50.77     48.01    -23.78     20.00
   26.0022     50.66     47.93    -23.82     20.00
   26.0123     50.58     47.86    -23.83     20.00
   26.0225     51.15     47.79    -23.18     20.00
   26.0326     51.13     47.71    -23.13     20.00
   26.0428     50.49     47.64    -23.70     20.00
   26.0530     50.65     47.57    -23.47     20.00
   26.0631     50.16     47.50    -23.88     20.00
   26.0733     49.82     47.43    -24.15     20.00
   26.0835     51.51     47.36    -22.39     20.00
   26.0936     50.49     47.29    -23.34     20.00
   26.1038     50.35     47.22    -23.41     20.00
   26.1140     49.34     47.15    -24.35     20.00
   26.1241     49.87     47.08    -23.75     20.00
   26.1343     49.24     47.01    -24.31     20.00
   26.1445     50.98     46.94    -22.51     20.00
   26.1546     50.18     46.87    -23.24     20.00
   26.1648     50.32     46.80    -23.03     20.00
   26.1750     49.96     46.74    -23.32     20.00
   26.1851     50.23     46.67    -22.99     20.00
   26.1953     50.13     46.61    -23.02     20.00
   26.2054     48.80     46.54    -24.29     20.00
   26.2156     49.57     46.48    -23.45     20.00
   26.2258     49.10     46.41    -23.86     20.00
   26.2359     50.02     46.35    -22.87     20.00
   26.2461     50.21     46.28    -22.62     20.00
   26.2563     49.86     46.22    -22.91     20.00
   26.2664     48.84     46.16    -23.86     20.00
   26.2766     49.45     46.10    -23.19     20.00
   26.2868     48.26     46.03    -24.32     20.00
   26.2969     49.70     45.97    -22.82     20.00
   26.3071     48.92     45.91    -23.54     20.00
   26.3173     48.30     45.85    -24.10     20.00
   26.3274     48.37     45.79    -23.97     20.00
   26.3376     47.93     45.73    -24.35     20.00
   26.3477     48.48     45.68    -23.74     20.00
   26.3579     49.51     45.62    -22.65     20.00
   26.3681     49.28     45.56    -22.83     20.00
   26.3782     48.38     45.50    -23.67     20.00
   26.3884     47.94     45.45    -24.05     20.00
   26.3986     48.13     45.39    -23.81     20.00
   26.4087     48.41     45.34    -23.47     20.00
   26.4189     48.09     45.28    -23.74     20.00
   26.4291     48.12     45.23    -23.65     20.00
   26.4392     47.55     45.17    -24.17     20.00
   26.4494     48.58     45.12    -23.09     20.00
   26.4596     47.32     45.07    -24.30     20.00
   26.4697     47.56     45.02    -24.00     20.00
   26.4799     48.55     44.97    -22.96     20.00
   26.4901     48.07     44.92    -23.39     20.00
   26.5002     48.02     44.87    -23.39     20.00
   26.5104     48.34     44.82    -23.02     20.00
   26.5205     48.43     44.77    -22.88     20.00
   26.5307     48.34     44.72    -22.93     20.00
   26.5409     48.38     44.67    -22.84     20.00
   26.5510     48.00     44.63    -23.17     20.00
   26.5612     47.95     44.58    -23.18     20.00
   26.5714     46.76     44.54    -24.32     20.00
   26.5815     47.29     44.49    -23.75     20.00
   26.5917     46.85     44.45    -24.14     20.00
   26.6019     48.42     44.40    -22.53     20.00
   26.6120     47.44     44.36    -23.47     20.00
   26.6222     47.10     44.32    -23.77     20.00
   26.6324     47.32     44.28    -23.50     20.00
   26.6425     46.09     44.24    -24.69     20.00
   26.6527     46.82     44.20    -23.93     20.00
   26.6628     48.28     44.16    -22.43     20.00
   26.6730     48.12     44.12    -22.55     20.00
   26.6832     46.87     44.09    -23.76     20.00
   26.6933     47.41     44.05    -23.19     20.00
   26.7035     47.82     44.02    -22.74     20.00
   26.7137     46.45     43.98    -24.08     20.00
   26.7238     47.66     43.95    -22.83     20.00
   26.7340     47.90     43.92    -22.56     20.00
   26.7442     47.69     43.88    -22.74     20.00
   26.7543     46.95     43.85    -23.45     20.00
   26.7645     47.58     43.82    -22.79     20.00
   26.7747     47.23     43.80    -23.11     20.00
   26.7848     45.34     43.77    -24.97     20.00
   26.7950     47.71     43.74    -22.58     20.00
   26.8052     46.88     43.72    -23.38     20.00
   26.8153     46.82     43.69    -23.42     20.00
   26.8255     47.35     43.67    -22.86     20.00
   26.8356     46.78     43.65    -23.41     20.00
   26.8458     46.48     43.63    -23.69     20.00
   26.8560     46.21     43.61    -23.94     20.00
   26.8661     47.29     43.59    -22.84     20.00
   26.8763     47.01     43.57    -23.11     20.00
   26.8865     46.92     43.55    -23.18     20.00
   26.8966     46.16     43.54    -23.92     20.00
   26.9068     46.14     43.53    -23.93     20.00
   26.9170     47.38     43.51    -22.68     20.00
   26.9271     47.98     43.50    -22.07     20.00
   26.9373     45.96     43.49    -24.08     20.00
   26.9475     46.36     43.48    -23.67     20.00
   26.9576     46.84     43.48    -23.18     20.00
   26.9678     45.71     43.47    -24.31     20.00
   26.9779     46.91     43.47    -23.11     20.00
   26.9881     45.60     43.47    -24.41     20.00
   26.9983     47.70     43.47    -22.31     20.00
   27.0084     46.94     43.47    -23.08     20.00
   27.0186     45.96     43.47    -24.06     20.00
   27.0288     47.02     43.48    -23.00     20.00
   27.0389     47.44     43.48    -22.59     20.00
   27.0491     46.59     43.49    -23.45     20.00
   27.0593     45.90     43.50    -24.15     20.00
   27.0694     46.73     43.51    -23.33     20.00
   27.0796     45.23     43.53    -24.84     20.00
   27.0898     46.95     43.54    -23.14     20.00
   27.0999     45.94     43.56    -24.17     20.00
   27.1101     46.61     43.58    -23.52     20.00
   27.1202     46.77     43.60    -23.38     20.00
   27.1304     45.41     43.63    -24.76     20.00
   27.1406     45.81     43.65    -24.39     20.00
   27.1507     46.91     43.68    -23.32     20.00
   27.1609     46.48     43.71    -23.78     20.00
   27.1711     46.74     43.74    -23.55     20.00
   27.1812     46.19     43.78    -24.14     20.00
   27.1914     46.32     43.82    -24.04     20.00
   27.2016     46.04     43.86    -24.36     20.00
   27.2117     46.32     43.90    -24.13     20.00
   27.2219     45.69     43.94    -24.80     20.00
   27.2321     45.42     43.99    -25.12     20.00
   27.2422     46.85     44.04    -23.74     20.00
   27.2524     47.41     44.09    -23.23     20.00
   27.2626     45.97     44.15    -24.73     20.00
   27.2727     45.38     44.21    -25.37     20.00
   27.2829     47.15     44.27    -23.66     20.00
   27.2930     45.79     44.33    -25.09     20.00
   27.3032     46.45     44.40    -24.49     20.00
   27.3134     45.60     44.47    -25.41     20.00
   27.3235     45.98     44.54    -25.11     20.00
   27.3337     45.01     44.62    -26.15     20.00
   27.3439     46.26     44.69    -24.98     20.00
   27.3540     46.43     44.78    -24.89     20.00
   27.3642     45.78     44.86    -25.63     20.00
   27.3744     46.84     44.95    -24.65     20.00
   27.3845     46.84     45.04    -24.74     20.00
   27.3947     45.86     45.13    -25.82     20.00
   27.4049     47.04     45.23    -24.74     20.00
   27.4150     47.27     45.33    -24.61     20.00
   27.4252     46.61     45.44    -25.37     20.00
   27.4353     46.74     45.54    -25.35     20.00
   27.4455     46.59     45.66    -25.61     20.00
   27.4557     46.12     45.77    -26.20     20.00
   27.4658     46.66     45.89    -25.77     20.00
   27.4760     46.48     46.01    -26.08     20.00
   27.4862     47.62     46.14    -25.06     20.00
   27.4963     46.65     46.27    -26.16     20.00
   27.5065     46.01     46.40    -26.94     20.00
   27.5167     46.68     46.54    -26.40     20.00
   27.5268     47.27     46.68    -25.95     20.00
   27.5370     46.45     46.82    -26.92     20.00
   27.5472     47.42     46.97    -26.10     20.00
   27.5573     48.22     47.12    -25.45     20.00
   27.5675     47.23     47.28    -26.59     20.00
   27.5777     48.11     47.44    -25.87     20.00
   27.5878     48.36     47.60    -25.79     20.00
   27.5980     47.75     47.77    -26.56     20.00
   27.6081     48.19     47.94    -26.29     20.00
   27.6183     47.09     48.11    -27.57     20.00
   27.6285     48.29     48.29    -26.55     20.00
   27.6386     48.30     48.48    -26.72     20.00
   27.6488     47.90     48.66    -27.31     20.00
   27.6590     47.59     48.86    -27.81     20.00
   27.6691     48.41     49.05    -27.19     20.00
   27.6793     49.10     49.25    -26.70     20.00
   27.6895     47.63     49.45    -28.37     20.00
   27.6996     47.56     49.66    -28.65     20.00
   27.7098     48.68     49.87    -27.74     20.00
   27.7200     48.12     50.09    -28.51     20.00
   27.7301     48.12     50.31    -28.73     20.00
   27.7403     48.72     50.53    -28.36     20.00
   27.7504     48.98     50.76    -28.32     20.00
   27.7606     49.33     50.99    -28.20     20.00
   27.7708     50.04     51.22    -27.73     20.00
   27.7809     49.37     51.46    -28.64     20.00
   27.7911     50.47     51.70    -27.78     20.00
   27.8013     49.99     51.95    -28.51     20.00
   27.8114     50.43     52.20    -28.31     20.00
   27.8216     50.08     52.45    -28.92     20.00
   27.8318     50.23     52.71    -29.03     20.00
   27.8419     51.70     52.97    -27.81     20.00
   27.8521     51.24     53.23    -28.54     20.00
   27.8623     51.05     53.50    -29.00     20.00
   27.8724     51.09     53.77    -29.23     20.00
   27.8826     50.84     54.05    -29.75     20.00
   27.8928     52.32     54.32    -28.55     20.00
   27.9029     51.00     54.60    -30.15     20.00
   27.9131     51.51     54.89    -29.92     20.00
   27.9232     52.14     55.17    -29.58     20.00
   27.9334     53.40     55.46    -28.61     20.00
   27.9436     53.63     55.75    -28.67     20.00
   27.9537     53.63     56.05    -28.96     20.00
   27.9639     54.16     56.34    -28.73     20.00
   27.9741     53.49     56.64    -29.70     20.00
   27.9842     53.95     56.94    -29.54     20.00
   27.9944     54.35     57.25    -29.44     20.00
   28.0046     55.40     57.55    -28.70     20.00
   28.0147     55.48     57.86    -28.93     20.00
   28.0249     56.76     58.17    -27.96     20.00
   28.0351     56.01     58.48    -29.02     20.00
   28.0452     55.48     58.79    -29.86     20.00
   28.0554     57.51     59.10    -28.14     20.00
   28.0655     55.85     59.42    -30.11     20.00
   28.0757     56.85     59.73    -29.43     20.00
   28.0859     57.90     60.05    -28.69     20.00
   28.0960     58.77     60.36    -28.14     20.00
   28.1062     57.71     60.68    -29.51     20.00
   28.1164     59.45     60.99    -28.09     20.00
   28.1265     59.40     61.30    -28.45     20.00
   28.1367     58.49     61.62    -29.68     20.00
   28.1469     59.99     61.93    -28.49     20.00
   28.1570     59.57     62.24    -29.22     20.00
   28.1672     60.30     62.56    -28.80     20.00
   28.1774     61.87     62.87    -27.54     20.00
   28.1875     61.65     63.17    -28.07     20.00
   28.1977     62.30     63.48    -27.72     20.00
   28.2079     63.04     63.78    -27.29     20.00
   28.2180     63.65     64.08    -26.97     20.00
   28.2282     64.70     64.37    -26.22     20.00
   28.2383     64.35     64.66    -26.86     20.00
   28.2485     64.21     64.95    -27.29     20.00
   28.2587     65.01     65.24    -26.77     20.00
   28.2688     66.69     65.52    -25.37     20.00
   28.2790     66.66     65.79    -25.68     20.00
   28.2892     67.30     66.06    -25.31     20.00
   28.2993     67.63     66.33    -25.24     20.00
   28.3095     68.41     66.59    -24.72     20.00
   28.3197     68.25     66.84    -25.13     20.00
   28.3298     69.24     67.08    -24.39     20.00
   28.3400     69.22     67.32    -24.65     20.00
   28.3502     68.74     67.55    -25.36     20.00
   28.3603     69.07     67.77    -25.25     20.00
   28.3705     69.28     67.99    -25.26     20.00
   28.3806     69.17     68.20    -25.57     20.00
   28.3908     70.46     68.39    -24.48     20.00
   28.4010     68.58     68.58    -26.55     20.00
   28.4111     71.19     68.76    -24.12     20.00
   28.4213     70.95     68.93    -24.53     20.00
   28.4315     70.23     69.09    -25.41     20.00
   28.4416     70.46     69.24    -25.33     20.00
   28.4518     69.54     69.38    -26.39     20.00
   28.4620     69.13     69.51    -26.93     20.00
   28.4721     70.78     69.63    -25.39     20.00
   28.4823     72.77     69.73    -23.51     20.00
   28.4925     71.23     69.83    -25.14     20.00
   28.5026     72.34     69.91    -24.11     20.00
   28.5128     71.40     69.98    -25.13     20.00
   28.5230     71.57     70.04    -25.01     20.00
   28.5331     71.80     70.08    -24.83     20.00
   28.5433     72.23     70.12    -24.43     20.00
   28.5534     71.85     70.14    -24.84     20.00
   28.5636     71.62     70.15    -25.08     20.00
   28.5738     70.85     70.15    -25.84     20.00
   28.5839     71.47     70.13    -25.21     20.00
   28.5941     73.74     70.10    -22.91     20.00
   28.6043     71.48     70.06    -25.13     20.00
   28.6144     71.72     70.01    -24.84     20.00
   28.6246     72.69     69.95    -23.81     20.00
   28.6348     72.33     69.87    -24.09     20.00
   28.6449     72.27     69.79    -24.06     20.00
   28.6551     71.43     69.69    -24.80     20.00
   28.6653     72.02     69.57    -24.10     20.00
   28.6754     70.42     69.45    -25.58     20.00
   28.6856     71.78     69.32    -24.08     20.00
   28.6957     71.00     69.18    -24.72     20.00
   28.7059     69.26     69.02    -26.31     20.00
   28.7161     69.90     68.85    -25.50     20.00
   28.7262     69.79     68.68    -25.44     20.00
   28.7364     68.86     68.50    -26.18     20.00
   28.7466     69.39     68.30    -25.46     20.00
   28.7567     68.90     68.10    -25.75     20.00
   28.7669     68.79     67.89    -25.64     20.00
   28.7771     67.77     67.67    -26.44     20.00
   28.7872     68.60     67.44    -25.38     20.00
   28.7974     67.52     67.20    -26.23     20.00
   28.8076     67.45     66.96    -26.05     20.00
   28.8177     67.54     66.71    -25.71     20.00
   28.8279     66.46     66.45    -26.54     20.00
   28.8381     67.09     66.19    -25.64     20.00
   28.8482     66.28     65.92    -26.18     20.00
   28.8584     65.46     65.64    -26.73     20.00
   28.8685     65.54     65.36    -26.37     20.00
   28.8787     66.63     65.08    -24.99     20.00
   28.8889     65.35     64.79    -25.98     20.00
   28.8990     62.98     64.50    -28.06     20.00
   28.9092     65.45     64.20    -25.29     20.00
   28.9194     64.18     63.89    -26.26     20.00
   28.9295     62.84     63.59    -27.30     20.00
   28.9397     62.52     63.28    -27.31     20.00
   28.9499     62.95     62.97    -26.57     20.00
   28.9600     61.71     62.66    -27.50     20.00
   28.9702     61.98     62.35    -26.91     20.00
   28.9804     60.60     62.03    -27.97     20.00
   28.9905     61.20     61.71    -27.06     20.00
   29.0007     60.39     61.39    -27.55     20.00
   29.0108     59.84     61.07    -27.78     20.00
   29.0210     59.32     60.75    -27.98     20.00
   29.0312     59.45     60.43    -27.52     20.00
   29.0413     58.26     60.11    -28.39     20.00
   29.0515     59.04     59.78    -27.29     20.00
   29.0617     58.94     59.46    -27.07     20.00
   29.0718     58.22     59.14    -27.47     20.00
   29.0820     58.02     58.82    -27.35     20.00
   29.0922     57.73     58.50    -27.31     20.00
   29.1023     56.93     58.18    -27.80     20.00
   29.1125     56.65     57.86    -27.76     20.00
   29.1227     56.92     57.54    -27.17     20.00
   29.1328     55.32     57.23    -28.46     20.00
   29.1430     55.79     56.91    -27.67     20.00
   29.1531     55.16     56.60    -27.99     20.00
   29.1633     54.01     56.29    -28.83     20.00
   29.1735     54.43     55.98    -28.10     20.00
   29.1836     54.29     55.68    -27.93     20.00
   29.1938     53.95     55.37    -27.97     20.00
   29.2040     53.52     55.07    -28.09     20.00
   29.2141     53.47     54.77    -27.85     20.00
   29.2243     53.30     54.47    -27.72     20.00
   29.2345     53.44     54.18    -27.28     20.00
   29.2446     52.63     53.89    -27.80     20.00
   29.2548     52.42     53.59    -27.72     20.00
   29.2650     52.29     53.31    -27.56     20.00
   29.2751     51.60     53.03    -27.97     20.00
   29.2853     51.00     52.74    -28.29     20.00
   29.2955     50.68     52.46    -28.33     20.00
   29.3056     50.93     52.19    -27.81     20.00
   29.3158     50.25     51.92    -28.22     20.00
   29.3259     50.77     51.65    -27.43     20.00
   29.3361     49.91     51.39    -28.02     20.00
   29.3463     50.57     51.12    -27.10     20.00
   29.3564     49.45     50.87    -27.96     20.00
   29.3666     50.66     50.61    -26.50     20.00
   29.3768     49.98     50.36    -26.92     20.00
   29.3869     48.86     50.11    -27.80     20.00
   29.3971     49.18     49.87    -27.23     20.00
   29.4073     48.21     49.62    -27.96     20.00
   29.4174     48.30     49.39    -27.63     20.00
   29.4276     49.65     49.15    -26.05     20.00
   29.4378     49.38     48.92    -26.08     20.00
   29.4479     46.93     48.69    -28.31     20.00
   29.4581     48.00     48.47    -27.01     20.00
   29.4682     46.86     48.25    -27.93     20.00
   29.4784     47.00     48.03    -27.58     20.00
   29.4886     47.37     47.81    -26.99     20.00
   29.4987     46.68     47.61    -27.47     20.00
   29.5089     46.73     47.40    -27.21     20.00
   29.5191     46.91     47.19    -26.83     20.00
   29.5292     47.18     46.99    -26.36     20.00
   29.5394     46.62     46.80    -26.72     20.00
   29.5496     44.97     46.60    -28.18     20.00
   29.5597     45.26     46.41    -27.70     20.00
   29.5699     46.05     46.23    -26.72     20.00
   29.5801     45.70     46.04    -26.89     20.00
   29.5902     45.85     45.86    -26.56     20.00
   29.6004     45.32     45.68    -26.91     20.00
   29.6106     44.73     45.51    -27.32     20.00
   29.6207     45.08     45.34    -26.80     20.00
   29.6309     45.54     45.17    -26.18     20.00
   29.6410     44.76     45.01    -26.79     20.00
   29.6512     44.14     44.84    -27.25     20.00
   29.6614     43.87     44.68    -27.36     20.00
   29.6715     44.32     44.53    -26.76     20.00
   29.6817     44.27     44.38    -26.65     20.00
   29.6919     44.27     44.23    -26.50     20.00
   29.7020     44.31     44.08    -26.32     20.00
   29.7122     43.51     43.93    -26.97     20.00
   29.7224     44.10     43.79    -26.24     20.00
   29.7325     43.60     43.65    -26.60     20.00
   29.7427     44.07     43.52    -25.99     20.00
   29.7529     44.03     43.38    -25.90     20.00
   29.7630     43.97     43.25    -25.83     20.00
   29.7732     43.33     43.12    -26.34     20.00
   29.7833     43.45     43.00    -26.09     20.00
   29.7935     43.97     42.87    -25.45     20.00
   29.8037     42.60     42.75    -26.70     20.00
   29.8138     42.13     42.63    -27.05     20.00
   29.8240     43.85     42.51    -25.21     20.00
   29.8342     41.91     42.40    -27.03     20.00
   29.8443     42.73     42.29    -26.10     20.00
   29.8545     43.34     42.17    -25.38     20.00
   29.8647     43.45     42.06    -25.16     20.00
   29.8748     42.47     41.96    -26.03     20.00
   29.8850     42.51     41.85    -25.89     20.00
   29.8952     42.59     41.75    -25.71     20.00
   29.9053     42.58     41.65    -25.62     20.00
   29.9155     42.71     41.55    -25.39     20.00
   29.9257     42.11     41.45    -25.89     20.00
   29.9358     42.50     41.36    -25.40     20.00
   29.9460     42.59     41.26    -25.22     20.00
   29.9561     43.04     41.17    -24.68     20.00
   29.9663     42.17     41.08    -25.45     20.00
   29.9765     41.84     40.99    -25.69     20.00
   29.9866     40.88     40.90    -26.57     20.00
   29.9968     42.00     40.81    -25.36     20.00
   30.0070     41.33     40.73    -25.94     20.00
   30.0171     40.57     40.64    -26.62     20.00
   30.0273     42.13     40.56    -24.98     20.00
   30.0375     41.68     40.48    -25.34     20.00
   30.0476     42.10     40.40    -24.84     20.00
   30.0578     40.70     40.32    -26.17     20.00
   30.0680     41.77     40.24    -25.02     20.00
   30.0781     41.35     40.16    -25.36     20.00
   30.0883     42.54     40.09    -24.09     20.00
   30.0984     41.87     40.01    -24.69     20.00
   30.1086     40.74     39.94    -25.75     20.00
   30.1188     40.90     39.87    -25.51     20.00
   30.1289     41.79     39.79    -24.55     20.00
   30.1391     40.67     39.72    -25.60     20.00
   30.1493     41.13     39.65    -25.07     20.00
   30.1594     40.64     39.58    -25.49     20.00
   30.1696     40.71     39.51    -25.35     20.00
   30.1798     41.08     39.44    -24.91     20.00
   30.1899     41.71     39.38    -24.21     20.00
   30.2001     40.30     39.31    -25.56     20.00
   30.2103     40.38     39.24    -25.41     20.00
   30.2204     40.13     39.18    -25.59     20.00
   30.2306     39.93     39.11    -25.73     20.00
   30.2408     41.11     39.05    -24.49     20.00
   30.2509     40.91     38.99    -24.62     20.00
   30.2611     40.04     38.92    -25.43     20.00
   30.2712     39.60     38.86    -25.81     20.00
   30.2814     40.19     38.80    -25.15     20.00
   30.2916     38.91     38.74    -26.37     20.00
   30.3017     39.46     38.67    -25.76     20.00
   30.3119     39.13     38.61    -26.03     20.00
   30.3221     39.50     38.55    -25.60     20.00
   30.3322     39.16     38.49    -25.88     20.00
   30.3424     39.88     38.43    -25.10     20.00
   30.3526     38.43     38.37    -26.49     20.00
   30.3627     39.37     38.31    -25.49     20.00
   30.3729     39.04     38.25    -25.76     20.00
   30.3831     38.14     38.20    -26.60     20.00
   30.3932     39.43     38.14    -25.25     20.00
   30.4034     38.48     38.08    -26.15     20.00
   30.4135     37.65     38.02    -26.92     20.00
   30.4237     38.99     37.96    -25.52     20.00
   30.4339     37.69     37.91    -26.76     20.00
   30.4440     39.08     37.85    -25.32     20.00
   30.4542     37.18     37.79    -27.16     20.00
   30.4644     37.20     37.74    -27.08     20.00
   30.4745     37.34     37.68    -26.89     20.00
   30.4847     38.22     37.63    -25.95     20.00
   30.4949     36.95     37.57    -27.17     20.00
   30.5050     36.88     37.51    -27.18     20.00
   30.5152     36.93     37.46    -27.07     20.00
   30.5254     36.19     37.40    -27.76     20.00
   30.5355     36.71     37.35    -27.18     20.00
   30.5457     36.95     37.29    -26.89     20.00
   30.5559     37.79     37.24    -25.99     20.00
   30.5660     36.73     37.18    -27.00     20.00
   30.5762     36.77     37.13    -26.90     20.00
   30.5863     36.88     37.07    -26.74     20.00
   30.5965     36.05     37.02    -27.52     20.00
   30.6067     37.37     36.97    -26.14     20.00
   30.6168     36.51     36.91    -26.95     20.00
   30.6270     35.70     36.86    -27.70     20.00
   30.6372     36.03     36.80    -27.32     20.00
   30.6473     36.51     36.75    -26.79     20.00
   30.6575     35.97     36.70    -27.27     20.00
   30.6677     35.84     36.64    -27.35     20.00
   30.6778     35.84     36.59    -27.30     20.00
   30.6880     34.86     36.54    -28.22     20.00
   30.6982     35.77     36.49    -27.26     20.00
   30.7083     35.46     36.43    -27.52     20.00
   30.7185     35.54     36.38    -27.39     20.00
   30.7286     35.27     36.33    -27.60     20.00
   30.7388     35.32     36.28    -27.50     20.00
   30.7490     35.30     36.22    -27.47     20.00
   30.7591     35.59     36.17    -27.13     20.00
   30.7693     35.57     36.12    -27.10     20.00
   30.7795     34.66     36.07    -27.95     20.00
   30.7896     35.62     36.02    -26.94     20.00
   30.7998     34.92     35.97    -27.59     20.00
   30.8100     35.09     35.91    -27.37     20.00
   30.8201     34.50     35.86    -27.91     20.00
   30.8303     35.81     35.81    -26.55     20.00
   30.8405     34.54     35.76    -27.77     20.00
   30.8506     34.77     35.71    -27.49     20.00
   30.8608     35.32     35.66    -26.89     20.00
   30.8710     33.84     35.61    -28.32     20.00
   30.8811     34.49     35.56    -27.62     20.00
   30.8913     34.84     35.51    -27.22     20.00
   30.9014     34.02     35.46    -27.99     20.00
   30.9116     35.59     35.41    -26.37     20.00
   30.9218     33.52     35.36    -28.39     20.00
   30.9319     34.86     35.31    -27.00     20.00
   30.9421     34.08     35.26    -27.73     20.00
   30.9523     34.85     35.22    -26.91     20.00
   30.9624     33.95     35.17    -27.76     20.00
   30.9726     33.98     35.12    -27.68     20.00
   30.9828     34.60     35.07    -27.02     20.00
   30.9929     33.83     35.02    -27.74     20.00
   31.0031     34.52     34.97    -27.00     20.00
   31.0133     34.49     34.93    -26.98     20.00
   31.0234     33.30     34.88    -28.13     20.00
   31.0336     33.45     34.83    -27.93     20.00
   31.0437     34.28     34.79    -27.05     20.00
   31.0539     33.54     34.74    -27.74     20.00
   31.0641     33.21     34.69    -28.03     20.00
   31.0742     33.66     34.65    -27.53     20.00
   31.0844     33.29     34.60    -27.86     20.00
   31.0946     33.29     34.55    -27.81     20.00
   31.1047     33.52     34.51    -27.53     20.00
   31.1149     32.93     34.46    -28.08     20.00
   31.1251     33.07     34.42    -27.89     20.00
   31.1352     34.09     34.37    -26.83     20.00
   31.1454     32.70     34.33    -28.17     20.00
   31.1556     33.32     34.28    -27.51     20.00
   31.1657     33.17     34.24    -27.62     20.00
   31.1759     32.10     34.20    -28.64     20.00
   31.1860     33.84     34.15    -26.86     20.00
   31.1962     33.70     34.11    -26.96     20.00
   31.2064     33.28     34.07    -27.33     20.00
   31.2165     33.07     34.02    -27.50     20.00
   31.2267     33.35     33.98    -27.18     20.00
   31.2369     32.67     33.94    -27.81     20.00
   31.2470     32.64     33.90    -27.80     20.00
   31.2572     33.48     33.86    -26.92     20.00
   31.2674     33.23     33.81    -27.13     20.00
   31.2775     32.63     33.77    -27.69     20.00
   31.2877     34.29     33.73    -25.99     20.00
   31.2979     32.36     33.69    -27.88     20.00
   31.3080     33.41     33.65    -26.79     20.00
   31.3182     33.23     33.61    -26.93     20.00
   31.3284     32.46     33.57    -27.66     20.00
   31.3385     31.85     33.53    -28.23     20.00
   31.3487     32.40     33.49    -27.64     20.00
   31.3588     33.23     33.45    -26.77     20.00
   31.3690     32.52     33.41    -27.44     20.00
   31.3792     32.52     33.38    -27.40     20.00
   31.3893     33.02     33.34    -26.86     20.00
   31.3995     32.97     33.30    -26.88     20.00
   31.4097     32.18     33.26    -27.63     20.00
   31.4198     32.40     33.23    -27.37     20.00
   31.4300     32.86     33.19    -26.88     20.00
   31.4402     32.98     33.15    -26.72     20.00
   31.4503     31.81     33.12    -27.85     20.00
   31.4605     31.26     33.08    -28.37     20.00
   31.4707     32.74     33.05    -26.85     20.00
   31.4808     32.30     33.01    -27.26     20.00
   31.4910     31.43     32.98    -28.09     20.00
   31.5011     32.91     32.94    -26.58     20.00
   31.5113     32.37     32.91    -27.08     20.00
   31.5215     32.32     32.87    -27.10     20.00
   31.5316     32.66     32.84    -26.72     20.00
   31.5418     32.65     32.81    -26.70     20.00
   31.5520     31.47     32.77    -27.85     20.00
   31.5621     31.93     32.74    -27.36     20.00
   31.5723     31.71     32.71    -27.54     20.00
   31.5825     31.36     32.67    -27.86     20.00
   31.5926     31.30     32.64    -27.89     20.00
   31.6028     32.06     32.61    -27.10     20.00
   31.6130     31.81     32.58    -27.32     20.00
   31.6231     31.81     32.55    -27.29     20.00
   31.6333     31.78     32.52    -27.29     20.00
   31.6435     32.66     32.49    -26.37     20.00
   31.6536     32.23     32.46    -26.78     20.00
   31.6638     31.82     32.43    -27.16     20.00
   31.6739     31.24     32.40    -27.71     20.00
   31.6841     32.52     32.37    -26.40     20.00
   31.6943     31.66     32.34    -27.23     20.00
   31.7044     31.78     32.31    -27.08     20.00
   31.7146     32.36     32.29    -26.47     20.00
   31.7248     31.46     32.26    -27.35     20.00
   31.7349     31.60     32.23    -27.18     20.00
   31.7451     31.98     32.21    -26.77     20.00
   31.7553     31.84     32.18    -26.88     20.00
   31.7654     31.41     32.15    -27.29     20.00
   31.7756     32.45     32.13    -26.22     20.00
   31.7858     32.19     32.10    -26.46     20.00
   31.7959     32.10     32.08    -26.52     20.00
   31.8061     31.81     32.05    -26.79     20.00
   31.8162     32.55     32.03    -26.02     20.00
   31.8264     31.95     32.00    -26.60     20.00
   31.8366     32.45     31.98    -26.07     20.00
   31.8467     31.09     31.95    -27.41     20.00
   31.8569     31.58     31.93    -26.90     20.00
   31.8671     31.37     31.91    -27.08     20.00
   31.8772     31.51     31.88    -26.92     20.00
   31.8874     31.92     31.86    -26.49     20.00
   31.8976     32.56     31.84    -25.82     20.00
   31.9077     32.40     31.82    -25.96     20.00
   31.9179     32.18     31.80    -26.16     20.00
   31.9281     31.67     31.77    -26.65     20.00
   31.9382     31.28     31.75    -27.02     20.00
   31.9484     31.84     31.73    -26.44     20.00
   31.9586     31.27     31.71    -26.99     20.00
   31.9687     31.43     31.69    -26.81     20.00
   31.9789     31.52     31.67    -26.70     20.00
   31.9890     32.58     31.65    -25.62     20.00
   31.9992     31.25     31.63    -26.93     20.00
   32.0094     31.24     31.61    -26.92     20.00
   32.0195     31.73     31.60    -26.41     20.00
   32.0297     31.74     31.58    -26.38     20.00
   32.0399     31.45     31.56    -26.66     20.00
   32.0500     31.62     31.54    -26.47     20.00
   32.0602     31.27     31.52    -26.80     20.00
   32.0704     32.55     31.51    -25.50     20.00
   32.0805     32.57     31.49    -25.47     20.00
   32.0907     32.18     31.47    -25.84     20.00
   32.1009     31.39     31.46    -26.61     20.00
   32.1110     32.16     31.44    -25.83     20.00
   32.1212     31.71     31.43    -26.26     20.00
   32.1313     31.54     31.41    -26.42     20.00
   32.1415     32.08     31.40    -25.86     20.00
   32.1517     32.05     31.38    -25.88     20.00
   32.1618     32.82     31.37    -25.09     20.00
   32.1720     32.12     31.35    -25.78     20.00
   32.1822     31.87     31.34    -26.01     20.00
   32.1923     32.19     31.32    -25.68     20.00
   32.2025     31.79     31.31    -26.07     20.00
   32.2127     32.29     31.30    -25.55     20.00
   32.2228     32.99     31.28    -24.84     20.00
   32.2330     32.40     31.27    -25.42     20.00
   32.2432     33.26     31.26    -24.54     20.00
   32.2533     33.03     31.25    -24.76     20.00
   32.2635     32.78     31.23    -25.00     20.00
   32.2737     31.66     31.22    -26.11     20.00
   32.2838     32.65     31.21    -25.11     20.00
   32.2940     32.80     31.20    -24.94     20.00
   32.3041     31.81     31.19    -25.92     20.00
   32.3143     32.68     31.18    -25.04     20.00
   32.3245     33.26     31.16    -24.45     20.00
   32.3346     32.38     31.15    -25.32     20.00
   32.3448     32.52     31.14    -25.17     20.00
   32.3550     32.57     31.13    -25.11     20.00
   32.3651     31.82     31.12    -25.85     20.00
   32.3753     31.84     31.11    -25.82     20.00
   32.3855     32.93     31.10    -24.72     20.00
   32.3956     32.59     31.09    -25.05     20.00
   32.4058     31.50     31.09    -26.13     20.00
   32.4160     31.76     31.08    -25.86     20.00
   32.4261     32.28     31.07    -25.33     20.00
   32.4363     32.85     31.06    -24.76     20.00
   32.4464     32.76     31.05    -24.84     20.00
   32.4566     32.45     31.04    -25.14     20.00
   32.4668     33.37     31.03    -24.21     20.00
   32.4769     32.80     31.03    -24.77     20.00
   32.4871     33.27     31.02    -24.29     20.00
   32.4973     32.30     31.01    -25.26     20.00
   32.5074     32.82     31.00    -24.73     20.00
   32.5176     32.67     31.00    -24.87     20.00
   32.5278     32.48     30.99    -25.05     20.00
   32.5379     32.64     30.98    -24.89     20.00
   32.5481     31.75     30.97    -25.77     20.00
   32.5583     32.32     30.97    -25.19     20.00
   32.5684     32.19     30.96    -25.32     20.00
   32.5786     32.49     30.95    -25.01     20.00
   32.5888     32.15     30.95    -25.34     20.00
   32.5989     32.43     30.94    -25.06     20.00
   32.6091     32.96     30.93    -24.52     20.00
   32.6192     32.59     30.93    -24.88     20.00
   32.6294     31.87     30.92    -25.60     20.00
   32.6396     31.90     30.92    -25.56     20.00
   32.6497     32.83     30.91    -24.63     20.00
   32.6599     31.99     30.90    -25.46     20.00
   32.6701     31.94     30.90    -25.50     20.00
   32.6802     32.70     30.89    -24.74     20.00
   32.6904     32.68     30.89    -24.75     20.00
   32.7006     32.15     30.88    -25.28     20.00
   32.7107     32.32     30.88    -25.10     20.00
   32.7209     31.87     30.87    -25.55     20.00
   32.7311     32.12     30.86    -25.29     20.00
   32.7412     32.26     30.86    -25.14     20.00
   32.7514     32.31     30.85    -25.09     20.00
   32.7615     32.23     30.85    -25.16     20.00
   32.7717     33.05     30.84    -24.34     20.00
   32.7819     32.84     30.84    -24.54     20.00
   32.7920     31.80     30.83    -25.58     20.00
   32.8022     32.25     30.83    -25.12     20.00
   32.8124     32.71     30.82    -24.66     20.00
   32.8225     31.84     30.82    -25.52     20.00
   32.8327     32.01     30.81    -25.35     20.00
   32.8429     32.77     30.80    -24.58     20.00
   32.8530     31.44     30.80    -25.91     20.00
   32.8632     32.07     30.79    -25.27     20.00
   32.8734     32.57     30.79    -24.76     20.00
   32.8835     31.89     30.78    -25.44     20.00
   32.8937     32.85     30.78    -24.47     20.00
   32.9039     32.26     30.77    -25.06     20.00
   32.9140     32.59     30.77    -24.72     20.00
   32.9242     32.73     30.76    -24.58     20.00
   32.9343     32.73     30.75    -24.57     20.00
   32.9445     32.57     30.75    -24.72     20.00
   32.9547     31.74     30.74    -25.55     20.00
   32.9648     32.61     30.74    -24.67     20.00
   32.9750     31.61     30.73    -25.67     20.00
   32.9852     32.05     30.72    -25.22     20.00
   32.9953     32.59     30.72    -24.67     20.00
   33.0055     31.29     30.71    -25.97     20.00
   33.0157     32.23     30.70    -25.02     20.00
   33.0258     32.73     30.70    -24.51     20.00
   33.0360     32.17     30.69    -25.07     20.00
   33.0462     32.00     30.68    -25.23     20.00
   33.0563     31.83     30.68    -25.39     20.00
   33.0665     31.98     30.67    -25.23     20.00
   33.0766     32.63     30.66    -24.58     20.00
   33.0868     31.80     30.65    -25.40     20.00
   33.0970     32.66     30.65    -24.53     20.00
   33.1071     31.73     30.64    -25.45     20.00
   33.1173     32.20     30.63    -24.98     20.00
   33.1275     31.97     30.62    -25.20     20.00
   33.1376     32.19     30.61    -24.97     20.00
   33.1478     32.61     30.60    -24.54     20.00
   33.1580     31.88     30.60    -25.26     20.00
   33.1681     33.60     30.59    -23.53     20.00
   33.1783     32.51     30.58    -24.61     20.00
   33.1885     32.19     30.57    -24.92     20.00
   33.1986     31.90     30.56    -25.20     20.00
   33.2088     32.74     30.55    -24.36     20.00
   33.2189     31.70     30.54    -25.39     20.00
   33.2291     31.55     30.53    -25.53     20.00
   33.2393     32.48     30.52    -24.58     20.00
   33.2494     31.46     30.51    -25.59     20.00
   33.2596     31.92     30.50    -25.12     20.00
   33.2698     32.20     30.49    -24.83     20.00
   33.2799     32.04     30.48    -24.98     20.00
   33.2901     32.74     30.46    -24.27     20.00
   33.3003     31.78     30.45    -25.22     20.00
   33.3104     32.38     30.44    -24.61     20.00
   33.3206     32.61     30.43    -24.36     20.00
   33.3308     32.03     30.42    -24.93     20.00
   33.3409     32.61     30.40    -24.34     20.00
   33.3511     31.97     30.39    -24.97     20.00
   33.3613     32.51     30.38    -24.41     20.00
   33.3714     32.12     30.36    -24.79     20.00
   33.3816     32.63     30.35    -24.27     20.00
   33.3917     32.07     30.34    -24.81     20.00
   33.4019     32.01     30.32    -24.86     20.00
   33.4121     32.01     30.31    -24.85     20.00
   33.4222     32.04     30.29    -24.80     20.00
   33.4324     31.79     30.28    -25.04     20.00
   33.4426     32.37     30.27    -24.44     20.00
   33.4527     33.03     30.25    -23.77     20.00
   33.4629     32.52     30.23    -24.26     20.00
   33.4731     32.78     30.22    -23.98     20.00
   33.4832     32.29     30.20    -24.46     20.00
   33.4934     32.18     30.19    -24.55     20.00
   33.5036     31.45     30.17    -25.27     20.00
   33.5137     32.20     30.15    -24.50     20.00
   33.5239     31.58     30.14    -25.10     20.00
   33.5340     31.94     30.12    -24.73     20.00
   33.5442     32.44     30.10    -24.21     20.00
   33.5544     31.37     30.08    -25.26     20.00
   33.5645     31.51     30.07    -25.10     20.00
   33.5747     31.64     30.05    -24.95     20.00
   33.5849     31.32     30.03    -25.26     20.00
   33.5950     31.81     30.01    -24.75     20.00
   33.6052     32.05     29.99    -24.49     20.00
   33.6154     30.85     29.97    -25.67     20.00
   33.6255     31.46     29.95    -25.04     20.00
   33.6357     30.87     29.93    -25.61     20.00
   33.6459     31.59     29.91    -24.87     20.00
   33.6560     30.59     29.89    -25.85     20.00
   33.6662     30.36     29.87    -26.06     20.00
   33.6764     31.30     29.85    -25.10     20.00
   33.6865     30.37     29.83    -26.01     20.00
   33.6967     30.01     29.81    -26.35     20.00
   33.7068     30.32     29.79    -26.02     20.00
   33.7170     30.65     29.77    -25.66     20.00
   33.7272     30.00     29.75    -26.29     20.00
   33.7373     29.88     29.72    -26.39     20.00
   33.7475     29.46     29.70    -26.79     20.00
   33.7577     29.87     29.68    -26.36     20.00
   33.7678     29.76     29.66    -26.44     20.00
   33.7780     30.26     29.64    -25.92     20.00
   33.7882     29.98     29.61    -26.18     20.00
   33.7983     28.84     29.59    -27.30     20.00
   33.8085     30.65     29.57    -25.46     20.00
   33.8187     29.44     29.54    -26.65     20.00
   33.8288     29.49     29.52    -26.57     20.00
   33.8390     29.46     29.49    -26.58     20.00
   33.8491     29.43     29.47    -26.59     20.00
   33.8593     29.15     29.45    -26.84     20.00
   33.8695     29.82     29.42    -26.15     20.00
   33.8796     29.20     29.40    -26.74     20.00
   33.8898     29.19     29.37    -26.73     20.00
   33.9000     28.62     29.35    -27.27     20.00
   33.9101     28.57     29.32    -27.30     20.00
   33.9203     28.62     29.30    -27.22     20.00
   33.9305     28.70     29.27    -27.12     20.00
   33.9406     28.66     29.25    -27.13     20.00
   33.9508     28.85     29.22    -26.92     20.00
   33.9610     28.57     29.20    -27.17     20.00
   33.9711     28.49     29.17    -27.23     20.00
   33.9813     27.75     29.14    -27.94     20.00
   33.9915     28.64     29.12    -27.02     20.00
   34.0016     28.16     29.09    -27.48     20.00
   34.0118     28.05     29.07    -27.56     20.00
   34.0219     28.19     29.04    -27.40     20.00
   34.0321     28.01     29.01    -27.55     20.00
   34.0423     27.88     28.99    -27.65     20.00
   34.0524     27.82     28.96    -27.69     20.00
   34.0626     28.07     28.93    -27.41     20.00
   34.0728     27.35     28.90    -28.10     20.00
   34.0829     28.02     28.88    -27.40     20.00
   34.0931     27.71     28.85    -27.69     20.00
   34.1033     27.59     28.82    -27.78     20.00
   34.1134     28.07     28.80    -27.27     20.00
   34.1236     27.36     28.77    -27.95     20.00
   34.1338     26.87     28.74    -28.42     20.00
   34.1439     27.20     28.71    -28.06     20.00
   34.1541     26.71     28.69    -28.52     20.00
   34.1642     26.64     28.66    -28.56     20.00
   34.1744     26.85     28.63    -28.33     20.00
   34.1846     27.36     28.60    -27.79     20.00
   34.1947     27.07     28.58    -28.05     20.00
   34.2049     26.55     28.55    -28.54     20.00
   34.2151     27.18     28.52    -27.89     20.00
   34.2252     26.46     28.49    -28.58     20.00
   34.2354     26.52     28.46    -28.49     20.00
   34.2456     26.56     28.43    -28.42     20.00
   34.2557     26.90     28.41    -28.05     20.00
   34.2659     26.55     28.38    -28.37     20.00
   34.2761     27.05     28.35    -27.85     20.00
   34.2862     26.76     28.32    -28.11     20.00
   34.2964     26.81     28.29    -28.03     20.00
   34.3066     26.23     28.27    -28.58     20.00
   34.3167     26.04     28.24    -28.74     20.00
   34.3269     25.79     28.21    -28.97     20.00
   34.3370     26.54     28.18    -28.19     20.00
   34.3472     26.48     28.15    -28.22     20.00
   34.3574     26.64     28.12    -28.03     20.00
   34.3675     25.42     28.10    -29.22     20.00
   34.3777     26.60     28.07    -28.01     20.00
   34.3879     25.95     28.04    -28.64     20.00
   34.3980     25.92     28.01    -28.64     20.00
   34.4082     26.33     27.98    -28.20     20.00
   34.4184     26.48     27.96    -28.02     20.00
   34.4285     25.53     27.93    -28.94     20.00
   34.4387     25.93     27.90    -28.51     20.00
   34.4489     25.27     27.87    -29.15     20.00
   34.4590     26.19     27.84    -28.20     20.00
   34.4692     26.32     27.81    -28.04     20.00
   34.4793     25.49     27.79    -28.84     20.00
   34.4895     26.13     27.76    -28.17     20.00
   34.4997     26.03     27.73    -28.25     20.00
   34.5098     26.30     27.70    -27.95     20.00
   34.5200     25.51     27.67    -28.71     20.00
   34.5302     24.88     27.65    -29.31     20.00
   34.5403     26.45     27.62    -27.71     20.00
   34.5505     26.02     27.59    -28.12     20.00
   34.5607     25.96     27.56    -28.15     20.00
   34.5708     25.83     27.54    -28.25     20.00
   34.5810     24.98     27.51    -29.07     20.00
   34.5912     26.13     27.48    -27.90     20.00
   34.6013     25.75     27.45    -28.25     20.00
   34.6115     26.60     27.42    -27.37     20.00
   34.6217     25.70     27.40    -28.24     20.00
   34.6318     25.09     27.37    -28.83     20.00
   34.6420     25.93     27.34    -27.96     20.00
   34.6521     26.01     27.32    -27.85     20.00
   34.6623     25.54     27.29    -28.29     20.00
   34.6725     26.15     27.26    -27.66     20.00
   34.6826     25.32     27.23    -28.46     20.00
   34.6928     26.04     27.21    -27.71     20.00
   34.7030     25.47     27.18    -28.26     20.00
   34.7131     25.41     27.15    -28.29     20.00
   34.7233     25.70     27.13    -27.97     20.00
   34.7335     25.57     27.10    -28.08     20.00
   34.7436     25.57     27.07    -28.05     20.00
   34.7538     25.16     27.05    -28.43     20.00
   34.7640     25.80     27.02    -27.77     20.00
   34.7741     25.15     26.99    -28.39     20.00
   34.7843     25.16     26.97    -28.35     20.00
   34.7944     25.46     26.94    -28.03     20.00
   34.8046     24.94     26.92    -28.52     20.00
   34.8148     25.47     26.89    -27.97     20.00
   34.8249     25.49     26.86    -27.92     20.00
   34.8351     25.01     26.84    -28.37     20.00
   34.8453     25.25     26.81    -28.11     20.00
   34.8554     25.32     26.79    -28.01     20.00
   34.8656     25.23     26.76    -28.08     20.00
   34.8758     24.94     26.73    -28.34     20.00
   34.8859     25.87     26.71    -27.39     20.00
   34.8961     24.51     26.68    -28.72     20.00
   34.9063     23.99     26.66    -29.21     20.00
   34.9164     23.98     26.63    -29.20     20.00
   34.9266     25.64     26.61    -27.51     20.00
   34.9367     24.68     26.58    -28.45     20.00
   34.9469     25.31     26.56    -27.80     20.00
   34.9571     25.37     26.53    -27.71     20.00
   34.9672     24.79     26.51    -28.27     20.00
   34.9774     25.68     26.49    -27.35     20.00
   34.9876     25.84     26.46    -27.17     20.00
   34.9977     25.16     26.44    -27.82     20.00
   35.0079     24.55     26.41    -28.41     20.00
   35.0181     24.98     26.39    -27.95     20.00
   35.0282     24.54     26.36    -28.37     20.00
   35.0384     24.26     26.34    -28.63     20.00
   35.0486     24.91     26.32    -27.95     20.00
   35.0587     24.17     26.29    -28.67     20.00
   35.0689     24.45     26.27    -28.37     20.00
   35.0791     24.65     26.25    -28.14     20.00
   35.0892     24.40     26.22    -28.37     20.00
   35.0994     24.63     26.20    -28.12     20.00
   35.1095     24.23     26.18    -28.49     20.00
   35.1197     24.82     26.15    -27.88     20.00
   35.1299     25.70     26.13    -26.98     20.00
   35.1400     24.96     26.11    -27.69     20.00
   35.1502     25.13     26.08    -27.50     20.00
   35.1604     24.65     26.06    -27.96     20.00
   35.1705     25.01     26.04    -27.58     20.00
   35.1807     24.49     26.02    -28.07     20.00
   35.1909     24.82     26.00    -27.72     20.00
   35.2010     24.51     25.97    -28.01     20.00
   35.2112     25.07     25.95    -27.43     20.00
   35.2214     24.85     25.93    -27.63     20.00
   35.2315     24.29     25.91    -28.16     20.00
   35.2417     24.75     25.89    -27.68     20.00
   35.2518     24.25     25.86    -28.16     20.00
   35.2620     24.87     25.84    -27.52     20.00
   35.2722     23.82     25.82    -28.55     20.00
   35.2823     24.21     25.80    -28.14     20.00
   35.2925     24.30     25.78    -28.03     20.00
   35.3027     24.61     25.76    -27.69     20.00
   35.3128     24.39     25.74    -27.89     20.00
   35.3230     23.87     25.72    -28.39     20.00
   35.3332     24.51     25.70    -27.73     20.00
   35.3433     24.82     25.68    -27.40     20.00
   35.3535     24.79     25.66    -27.41     20.00
   35.3637     24.24     25.63    -27.94     20.00
   35.3738     24.12     25.61    -28.04     20.00
   35.3840     24.67     25.59    -27.47     20.00
   35.3942     24.45     25.57    -27.67     20.00
   35.4043     24.80     25.56    -27.30     20.00
   35.4145     25.23     25.54    -26.85     20.00
   35.4246     23.82     25.52    -28.24     20.00
   35.4348     24.02     25.50    -28.02     20.00
   35.4450     23.91     25.48    -28.11     20.00
   35.4551     24.71     25.46    -27.29     20.00
   35.4653     24.63     25.44    -27.35     20.00
   35.4755     24.55     25.42    -27.42     20.00
   35.4856     24.56     25.40    -27.39     20.00
   35.4958     24.15     25.38    -27.78     20.00
   35.5060     24.26     25.36    -27.65     20.00
   35.5161     25.03     25.34    -26.86     20.00
   35.5263     25.04     25.33    -26.83     20.00
   35.5365     24.47     25.31    -27.38     20.00
   35.5466     24.52     25.29    -27.32     20.00
   35.5568     24.50     25.27    -27.32     20.00
   35.5669     24.49     25.25    -27.31     20.00
   35.5771     24.35     25.24    -27.43     20.00
   35.5873     24.40     25.22    -27.36     20.00
   35.5974     24.44     25.20    -27.31     20.00
   35.6076     24.35     25.18    -27.38     20.00
   35.6178     24.88     25.17    -26.83     20.00
   35.6279     23.67     25.15    -28.02     20.00
   35.6381     24.73     25.13    -26.95     20.00
   35.6483     24.16     25.11    -27.50     20.00
   35.6584     24.12     25.10    -27.52     20.00
   35.6686     23.99     25.08    -27.64     20.00
   35.6788     24.43     25.06    -27.18     20.00
   35.6889     23.94     25.05    -27.65     20.00
   35.6991     24.54     25.03    -27.04     20.00
   35.7093     24.22     25.01    -27.34     20.00
   35.7194     24.09     25.00    -27.45     20.00
   35.7296     24.22     24.98    -27.31     20.00
   35.7397     23.95     24.97    -27.56     20.00
   35.7499     24.29     24.95    -27.21     20.00
   35.7601     23.82     24.93    -27.66     20.00
   35.7702     23.52     24.92    -27.94     20.00
   35.7804     24.51     24.90    -26.94     20.00
   35.7906     24.28     24.89    -27.15     20.00
   35.8007     24.11     24.87    -27.31     20.00
   35.8109     24.41     24.86    -26.99     20.00
   35.8211     23.30     24.84    -28.09     20.00
   35.8312     23.55     24.83    -27.82     20.00
   35.8414     24.20     24.81    -27.16     20.00
   35.8516     23.38     24.80    -27.96     20.00
   35.8617     23.69     24.78    -27.64     20.00
   35.8719     23.64     24.77    -27.67     20.00
   35.8820     23.93     24.75    -27.37     20.00
   35.8922     24.52     24.74    -26.76     20.00
   35.9024     24.39     24.72    -26.88     20.00
   35.9125     23.09     24.71    -28.16     20.00
   35.9227     23.82     24.69    -27.42     20.00
   35.9329     24.04     24.68    -27.19     20.00
   35.9430     23.55     24.67    -27.66     20.00
   35.9532     23.74     24.65    -27.46     20.00
   35.9634     23.57     24.64    -27.61     20.00
   35.9735     24.55     24.62    -26.62     20.00
   35.9837     23.84     24.61    -27.32     20.00
   35.9939     23.62     24.60    -27.52     20.00
