 => TITLE: 
 => Data file name: C:\Users\stefano\Nextcloud2\projects\programming\python\xrd-winplotr\folder\G111\G111--5-40-0.01-1000ms.xy
 => Instrm        :    1
 => Lambda(1&2)   :   1.54060  1.54060
 => Numb.of.points:      2930
 => Numb.of.peaks :         8
    2Theta     Yobs     Ycalc  Yobs-Ycal    Backg    Bragg     Posr  Intensity   FWHM    Eta
    6.4050     22.48     24.79    -28.69     20.91   18.6424     -2.07     164.66  0.8366  0.5000
    6.4152     22.65     24.80    -28.52     20.91   20.6057     -2.07      55.83  1.0613  0.5000
    6.4253     23.30     24.80    -27.88     20.91   22.4436     -2.07     109.10  1.0662  0.5000
    6.4355     22.71     24.81    -28.48     20.91   28.6048     -2.07      48.69  1.1854  0.5000
    6.4457     22.24     24.81    -28.95     20.90   30.0251     -2.07      35.54  3.1256  0.5000
    6.4558     23.34     24.82    -27.86     20.90   33.2414     -2.07      18.00  2.0088  0.5000
    6.4660     22.85     24.83    -28.35     20.90   17.2222     -2.07      44.72  2.1982  0.5000
    6.4762     23.23     24.83    -27.98     20.90   20.1044     -2.07     931.19  9.8565  0.5000
    6.4863     23.12     24.84    -28.10     20.90
    6.4965     22.99     24.85    -28.23     20.90
    6.5066     23.03     24.85    -28.20     20.90
    6.5168     22.65     24.86    -28.59     20.90
    6.5270     23.79     24.86    -27.45     20.90
    6.5371     22.68     24.87    -28.57     20.90
    6.5473     22.58     24.88    -28.68     20.90
    6.5575     23.29     24.88    -27.97     20.90
    6.5676     22.98     24.89    -28.29     20.90
    6.5778     22.26     24.90    -29.01     20.90
    6.5880     22.90     24.90    -28.38     20.90
    6.5981     22.76     24.91    -28.53     20.90
    6.6083     22.85     24.92    -28.44     20.90
    6.6185     23.01     24.92    -28.29     20.90
    6.6286     22.78     24.93    -28.53     20.90
    6.6388     23.41     24.94    -27.90     20.90
    6.6489     22.42     24.94    -28.90     20.90
    6.6591     23.17     24.95    -28.16     20.90
    6.6693     23.07     24.96    -28.26     20.90
    6.6794     23.21     24.96    -28.13     20.90
    6.6896     22.98     24.97    -28.37     20.90
    6.6998     23.32     24.98    -28.03     20.89
    6.7099     22.78     24.98    -28.58     20.89
    6.7201     22.96     24.99    -28.41     20.89
    6.7303     22.95     25.00    -28.43     20.89
    6.7404     23.15     25.00    -28.23     20.89
    6.7506     23.68     25.01    -27.71     20.89
    6.7608     22.80     25.02    -28.60     20.89
    6.7709     23.45     25.03    -27.95     20.89
    6.7811     23.60     25.03    -27.81     20.89
    6.7913     23.41     25.04    -28.01     20.89
    6.8014     23.23     25.05    -28.19     20.89
    6.8116     23.96     25.05    -27.47     20.89
    6.8217     23.51     25.06    -27.93     20.89
    6.8319     22.93     25.07    -28.52     20.89
    6.8421     23.37     25.07    -28.08     20.89
    6.8522     23.13     25.08    -28.33     20.89
    6.8624     23.61     25.09    -27.86     20.89
    6.8726     23.27     25.10    -28.20     20.89
    6.8827     23.40     25.10    -28.08     20.89
    6.8929     24.46     25.11    -27.03     20.89
    6.9031     22.36     25.12    -29.14     20.89
    6.9132     23.68     25.13    -27.82     20.89
    6.9234     23.94     25.13    -27.57     20.89
    6.9336     23.88     25.14    -27.64     20.89
    6.9437     23.39     25.15    -28.14     20.89
    6.9539     22.98     25.15    -28.55     20.88
    6.9640     23.70     25.16    -27.84     20.88
    6.9742     24.20     25.17    -27.35     20.88
    6.9844     23.47     25.18    -28.09     20.88
    6.9945     23.41     25.18    -28.15     20.88
    7.0047     23.71     25.19    -27.86     20.88
    7.0149     23.32     25.20    -28.26     20.88
    7.0250     23.66     25.21    -27.93     20.88
    7.0352     23.93     25.22    -27.66     20.88
    7.0454     23.36     25.22    -28.24     20.88
    7.0555     23.68     25.23    -27.93     20.88
    7.0657     24.55     25.24    -27.07     20.88
    7.0759     24.18     25.25    -27.44     20.88
    7.0860     23.84     25.25    -27.79     20.88
    7.0962     24.54     25.26    -27.10     20.88
    7.1064     24.16     25.27    -27.49     20.88
    7.1165     23.21     25.28    -28.45     20.88
    7.1267     23.98     25.29    -27.68     20.88
    7.1368     23.80     25.29    -27.87     20.88
    7.1470     24.41     25.30    -27.27     20.88
    7.1572     23.42     25.31    -28.27     20.88
    7.1673     24.05     25.32    -27.65     20.88
    7.1775     24.22     25.33    -27.48     20.88
    7.1877     24.17     25.33    -27.54     20.88
    7.1978     23.70     25.34    -28.02     20.88
    7.2080     24.35     25.35    -27.38     20.87
    7.2182     23.33     25.36    -28.41     20.87
    7.2283     23.60     25.37    -28.14     20.87
    7.2385     23.79     25.37    -27.96     20.87
    7.2487     23.68     25.38    -28.08     20.87
    7.2588     24.35     25.39    -27.42     20.87
    7.2690     24.20     25.40    -27.58     20.87
    7.2791     23.66     25.41    -28.13     20.87
    7.2893     24.48     25.42    -27.31     20.87
    7.2995     24.34     25.43    -27.46     20.87
    7.3096     23.63     25.43    -28.18     20.87
    7.3198     23.79     25.44    -28.03     20.87
    7.3300     23.87     25.45    -27.96     20.87
    7.3401     24.23     25.46    -27.61     20.87
    7.3503     24.01     25.47    -27.84     20.87
    7.3605     23.79     25.48    -28.06     20.87
    7.3706     24.51     25.49    -27.35     20.87
    7.3808     24.60     25.49    -27.27     20.87
    7.3910     24.03     25.50    -27.85     20.87
    7.4011     24.86     25.51    -27.03     20.87
    7.4113     24.27     25.52    -27.63     20.87
    7.4215     23.98     25.53    -27.93     20.87
    7.4316     24.49     25.54    -27.43     20.87
    7.4418     24.52     25.55    -27.40     20.87
    7.4519     24.76     25.56    -27.17     20.87
    7.4621     25.38     25.56    -26.56     20.86
    7.4723     24.31     25.57    -27.64     20.86
    7.4824     24.74     25.58    -27.22     20.86
    7.4926     25.55     25.59    -26.42     20.86
    7.5028     24.55     25.60    -27.43     20.86
    7.5129     24.70     25.61    -27.29     20.86
    7.5231     25.16     25.62    -26.84     20.86
    7.5333     24.88     25.63    -27.13     20.86
    7.5434     24.70     25.64    -27.32     20.86
    7.5536     24.17     25.65    -27.85     20.86
    7.5638     24.45     25.66    -27.58     20.86
    7.5739     24.74     25.67    -27.30     20.86
    7.5841     24.51     25.68    -27.54     20.86
    7.5942     25.63     25.68    -26.43     20.86
    7.6044     24.01     25.69    -28.06     20.86
    7.6146     24.73     25.70    -27.35     20.86
    7.6247     24.79     25.71    -27.30     20.86
    7.6349     24.69     25.72    -27.41     20.86
    7.6451     24.80     25.73    -27.31     20.86
    7.6552     24.98     25.74    -27.14     20.86
    7.6654     24.40     25.75    -27.73     20.86
    7.6756     24.89     25.76    -27.25     20.86
    7.6857     24.48     25.77    -27.67     20.86
    7.6959     24.79     25.78    -27.37     20.86
    7.7061     24.69     25.79    -27.48     20.86
    7.7162     25.93     25.80    -26.25     20.85
    7.7264     25.12     25.81    -27.07     20.85
    7.7365     25.07     25.82    -27.13     20.85
    7.7467     25.49     25.83    -26.72     20.85
    7.7569     24.51     25.84    -27.71     20.85
    7.7670     25.50     25.85    -26.73     20.85
    7.7772     24.74     25.86    -27.50     20.85
    7.7874     24.54     25.87    -27.71     20.85
    7.7975     25.74     25.88    -26.52     20.85
    7.8077     24.80     25.89    -27.47     20.85
    7.8179     25.20     25.90    -27.08     20.85
    7.8280     26.05     25.91    -26.24     20.85
    7.8382     25.49     25.92    -26.81     20.85
    7.8484     25.74     25.93    -26.57     20.85
    7.8585     25.30     25.94    -27.02     20.85
    7.8687     25.57     25.95    -26.76     20.85
    7.8789     25.10     25.96    -27.24     20.85
    7.8890     25.61     25.97    -26.74     20.85
    7.8992     25.88     25.99    -26.48     20.85
    7.9093     25.70     26.00    -26.67     20.85
    7.9195     25.80     26.01    -26.58     20.85
    7.9297     25.79     26.02    -26.61     20.85
    7.9398     25.63     26.03    -26.78     20.85
    7.9500     25.34     26.04    -27.08     20.85
    7.9602     25.27     26.05    -27.16     20.85
    7.9703     25.48     26.06    -26.96     20.85
    7.9805     24.87     26.07    -27.58     20.84
    7.9907     25.13     26.08    -27.33     20.84
    8.0008     25.36     26.09    -27.11     20.84
    8.0110     25.20     26.10    -27.28     20.84
    8.0212     24.93     26.12    -27.56     20.84
    8.0313     25.07     26.13    -27.43     20.84
    8.0415     25.48     26.14    -27.04     20.84
    8.0516     25.84     26.15    -26.69     20.84
    8.0618     25.62     26.16    -26.92     20.84
    8.0720     25.68     26.17    -26.87     20.84
    8.0821     26.62     26.18    -25.94     20.84
    8.0923     25.70     26.19    -26.87     20.84
    8.1025     26.90     26.21    -25.68     20.84
    8.1126     25.74     26.22    -26.86     20.84
    8.1228     25.31     26.23    -27.30     20.84
    8.1330     26.76     26.24    -25.86     20.84
    8.1431     25.95     26.25    -26.68     20.84
    8.1533     25.60     26.26    -27.04     20.84
    8.1635     25.95     26.28    -26.70     20.84
    8.1736     27.24     26.29    -25.43     20.84
    8.1838     26.09     26.30    -26.59     20.84
    8.1940     26.18     26.31    -26.51     20.84
    8.2041     26.71     26.32    -25.99     20.84
    8.2143     26.65     26.34    -26.06     20.84
    8.2244     26.46     26.35    -26.27     20.84
    8.2346     26.53     26.36    -26.21     20.83
    8.2448     26.23     26.37    -26.52     20.83
    8.2549     26.40     26.38    -26.36     20.83
    8.2651     26.19     26.40    -26.58     20.83
    8.2753     26.35     26.41    -26.44     20.83
    8.2854     26.85     26.42    -25.95     20.83
    8.2956     26.45     26.43    -26.36     20.83
    8.3058     25.99     26.45    -26.83     20.83
    8.3159     26.09     26.46    -26.75     20.83
    8.3261     26.84     26.47    -26.01     20.83
    8.3363     26.66     26.48    -26.20     20.83
    8.3464     25.62     26.50    -27.25     20.83
    8.3566     26.43     26.51    -26.46     20.83
    8.3667     26.59     26.52    -26.31     20.83
    8.3769     25.99     26.53    -26.92     20.83
    8.3871     26.36     26.55    -26.56     20.83
    8.3972     26.69     26.56    -26.25     20.83
    8.4074     26.45     26.57    -26.50     20.83
    8.4176     26.60     26.59    -26.36     20.83
    8.4277     26.99     26.60    -25.99     20.83
    8.4379     27.11     26.61    -25.88     20.83
    8.4481     27.23     26.62    -25.77     20.83
    8.4582     26.49     26.64    -26.53     20.83
    8.4684     26.92     26.65    -26.11     20.83
    8.4786     26.98     26.66    -26.06     20.83
    8.4887     26.90     26.68    -26.16     20.82
    8.4989     26.15     26.69    -26.92     20.82
    8.5091     26.91     26.70    -26.17     20.82
    8.5192     26.72     26.72    -26.38     20.82
    8.5294     27.76     26.73    -25.35     20.82
    8.5395     27.62     26.75    -25.50     20.82
    8.5497     26.62     26.76    -26.52     20.82
    8.5599     27.15     26.77    -26.00     20.82
    8.5700     26.99     26.79    -26.17     20.82
    8.5802     26.57     26.80    -26.61     20.82
    8.5904     27.26     26.81    -25.93     20.82
    8.6005     26.55     26.83    -26.66     20.82
    8.6107     27.02     26.84    -26.20     20.82
    8.6209     26.84     26.86    -26.39     20.82
    8.6310     27.45     26.87    -25.80     20.82
    8.6412     26.62     26.88    -26.64     20.82
    8.6514     27.38     26.90    -25.90     20.82
    8.6615     28.18     26.91    -25.11     20.82
    8.6717     26.97     26.93    -26.34     20.82
    8.6818     26.70     26.94    -26.62     20.82
    8.6920     27.98     26.96    -25.35     20.82
    8.7022     27.18     26.97    -26.17     20.82
    8.7123     28.26     26.98    -25.10     20.82
    8.7225     28.00     27.00    -25.38     20.82
    8.7327     26.96     27.01    -26.43     20.82
    8.7428     27.15     27.03    -26.26     20.81
    8.7530     27.78     27.04    -25.64     20.81
    8.7632     26.84     27.06    -26.60     20.81
    8.7733     26.96     27.07    -26.49     20.81
    8.7835     27.49     27.09    -25.98     20.81
    8.7937     27.04     27.10    -26.44     20.81
    8.8038     28.16     27.12    -25.34     20.81
    8.8140     27.88     27.13    -25.63     20.81
    8.8242     26.79     27.15    -26.74     20.81
    8.8343     27.31     27.16    -26.23     20.81
    8.8445     27.77     27.18    -25.79     20.81
    8.8546     27.95     27.20    -25.62     20.81
    8.8648     27.84     27.21    -25.75     20.81
    8.8750     27.27     27.23    -26.33     20.81
    8.8851     27.45     27.24    -26.17     20.81
    8.8953     27.99     27.26    -25.65     20.81
    8.9055     27.82     27.27    -25.83     20.81
    8.9156     27.30     27.29    -26.37     20.81
    8.9258     29.51     27.30    -24.17     20.81
    8.9360     28.36     27.32    -25.34     20.81
    8.9461     27.21     27.34    -26.50     20.81
    8.9563     28.80     27.35    -24.93     20.81
    8.9665     28.36     27.37    -25.39     20.81
    8.9766     27.84     27.38    -25.92     20.81
    8.9868     28.30     27.40    -25.48     20.81
    8.9969     27.19     27.42    -26.61     20.80
    9.0071     27.82     27.43    -25.99     20.80
    9.0173     29.09     27.45    -24.74     20.80
    9.0274     28.71     27.47    -25.13     20.80
    9.0376     28.57     27.48    -25.29     20.80
    9.0478     27.67     27.50    -26.21     20.80
    9.0579     27.98     27.52    -25.91     20.80
    9.0681     27.43     27.53    -26.48     20.80
    9.0783     28.24     27.55    -25.69     20.80
    9.0884     28.11     27.57    -25.83     20.80
    9.0986     28.36     27.58    -25.60     20.80
    9.1088     29.17     27.60    -24.81     20.80
    9.1189     28.48     27.62    -25.52     20.80
    9.1291     28.93     27.64    -25.08     20.80
    9.1393     28.83     27.65    -25.20     20.80
    9.1494     27.74     27.67    -26.31     20.80
    9.1596     29.42     27.69    -24.64     20.80
    9.1697     28.40     27.70    -25.68     20.80
    9.1799     28.90     27.72    -25.20     20.80
    9.1901     27.67     27.74    -26.45     20.80
    9.2002     28.85     27.76    -25.28     20.80
    9.2104     28.95     27.77    -25.20     20.80
    9.2206     28.74     27.79    -25.43     20.80
    9.2307     29.14     27.81    -25.05     20.80
    9.2409     29.36     27.83    -24.85     20.80
    9.2511     28.26     27.85    -25.96     20.79
    9.2612     28.32     27.86    -25.92     20.79
    9.2714     29.45     27.88    -24.81     20.79
    9.2816     28.31     27.90    -25.97     20.79
    9.2917     28.74     27.92    -25.56     20.79
    9.3019     28.49     27.94    -25.83     20.79
    9.3120     28.91     27.96    -25.42     20.79
    9.3222     28.85     27.97    -25.50     20.79
    9.3324     28.99     27.99    -25.38     20.79
    9.3425     28.52     28.01    -25.87     20.79
    9.3527     29.96     28.03    -24.45     20.79
    9.3629     27.99     28.05    -26.44     20.79
    9.3730     29.09     28.07    -25.36     20.79
    9.3832     28.63     28.09    -25.83     20.79
    9.3934     29.54     28.11    -24.94     20.79
    9.4035     28.71     28.12    -25.79     20.79
    9.4137     29.48     28.14    -25.04     20.79
    9.4239     29.41     28.16    -25.13     20.79
    9.4340     29.45     28.18    -25.11     20.79
    9.4442     29.57     28.20    -25.01     20.79
    9.4544     29.02     28.22    -25.58     20.79
    9.4645     29.59     28.24    -25.03     20.79
    9.4747     29.59     28.26    -25.05     20.79
    9.4848     29.46     28.28    -25.20     20.79
    9.4950     29.51     28.30    -25.17     20.79
    9.5052     29.85     28.32    -24.85     20.78
    9.5153     29.54     28.34    -25.18     20.78
    9.5255     29.39     28.36    -25.35     20.78
    9.5357     30.60     28.38    -24.16     20.78
    9.5458     30.16     28.40    -24.62     20.78
    9.5560     28.48     28.42    -26.32     20.78
    9.5662     29.27     28.44    -25.55     20.78
    9.5763     29.75     28.46    -25.09     20.78
    9.5865     29.09     28.48    -25.77     20.78
    9.5967     29.95     28.50    -24.93     20.78
    9.6068     29.51     28.52    -25.39     20.78
    9.6170     29.60     28.54    -25.32     20.78
    9.6271     30.63     28.56    -24.31     20.78
    9.6373     29.58     28.59    -25.38     20.78
    9.6475     29.16     28.61    -25.82     20.78
    9.6576     30.15     28.63    -24.86     20.78
    9.6678     30.15     28.65    -24.88     20.78
    9.6780     29.24     28.67    -25.81     20.78
    9.6881     30.02     28.69    -25.05     20.78
    9.6983     29.80     28.71    -25.29     20.78
    9.7085     30.37     28.73    -24.74     20.78
    9.7186     30.50     28.76    -24.63     20.78
    9.7288     30.07     28.78    -25.09     20.78
    9.7390     29.40     28.80    -25.78     20.78
    9.7491     29.79     28.82    -25.41     20.78
    9.7593     29.30     28.84    -25.92     20.78
    9.7694     29.30     28.86    -25.94     20.77
    9.7796     30.12     28.89    -25.15     20.77
    9.7898     30.66     28.91    -24.63     20.77
    9.7999     29.83     28.93    -25.48     20.77
    9.8101     29.98     28.95    -25.35     20.77
    9.8203     30.60     28.98    -24.75     20.77
    9.8304     29.07     29.00    -26.31     20.77
    9.8406     30.62     29.02    -24.78     20.77
    9.8508     29.89     29.04    -25.53     20.77
    9.8609     29.05     29.07    -26.39     20.77
    9.8711     31.16     29.09    -24.31     20.77
    9.8813     29.76     29.11    -25.73     20.77
    9.8914     30.05     29.14    -25.46     20.77
    9.9016     30.13     29.16    -25.41     20.77
    9.9118     30.56     29.18    -25.00     20.77
    9.9219     29.55     29.21    -26.03     20.77
    9.9321     30.55     29.23    -25.06     20.77
    9.9422     29.75     29.25    -25.88     20.77
    9.9524     30.84     29.28    -24.81     20.77
    9.9626     29.82     29.30    -25.86     20.77
    9.9727     30.52     29.32    -25.18     20.77
    9.9829     30.44     29.35    -25.29     20.77
    9.9931     30.38     29.37    -25.37     20.77
   10.0032     30.38     29.40    -25.39     20.77
   10.0134     30.46     29.42    -25.34     20.77
   10.0236     30.73     29.44    -25.09     20.76
   10.0337     29.68     29.47    -26.17     20.76
   10.0439     30.16     29.49    -25.71     20.76
   10.0541     30.99     29.52    -24.91     20.76
   10.0642     30.31     29.54    -25.61     20.76
   10.0744     31.31     29.57    -24.63     20.76
   10.0845     31.16     29.59    -24.81     20.76
   10.0947     30.84     29.62    -25.15     20.76
   10.1049     30.92     29.64    -25.10     20.76
   10.1150     30.85     29.67    -25.19     20.76
   10.1252     31.17     29.69    -24.90     20.76
   10.1354     31.06     29.72    -25.03     20.76
   10.1455     31.55     29.74    -24.57     20.76
   10.1557     30.80     29.77    -25.35     20.76
   10.1659     30.49     29.79    -25.68     20.76
   10.1760     30.25     29.82    -25.95     20.76
   10.1862     30.60     29.84    -25.62     20.76
   10.1964     31.32     29.87    -24.93     20.76
   10.2065     30.34     29.90    -25.93     20.76
   10.2167     30.96     29.92    -25.34     20.76
   10.2269     29.46     29.95    -26.87     20.76
   10.2370     31.05     29.98    -25.30     20.76
   10.2472     31.63     30.00    -24.75     20.76
   10.2573     30.60     30.03    -25.81     20.76
   10.2675     31.01     30.05    -25.42     20.76
   10.2777     30.86     30.08    -25.60     20.75
   10.2878     30.65     30.11    -25.84     20.75
   10.2980     30.67     30.14    -25.84     20.75
   10.3082     31.15     30.16    -25.39     20.75
   10.3183     31.64     30.19    -24.93     20.75
   10.3285     31.84     30.22    -24.75     20.75
   10.3387     31.16     30.24    -25.46     20.75
   10.3488     30.54     30.27    -26.11     20.75
   10.3590     31.59     30.30    -25.09     20.75
   10.3692     31.15     30.33    -25.55     20.75
   10.3793     30.82     30.35    -25.91     20.75
   10.3895     31.49     30.38    -25.27     20.75
   10.3996     30.68     30.41    -26.11     20.75
   10.4098     31.33     30.44    -25.49     20.75
   10.4200     31.36     30.47    -25.48     20.75
   10.4301     32.18     30.49    -24.69     20.75
   10.4403     31.33     30.52    -25.57     20.75
   10.4505     30.74     30.55    -26.19     20.75
   10.4606     32.37     30.58    -24.59     20.75
   10.4708     31.71     30.61    -25.28     20.75
   10.4810     31.43     30.64    -25.58     20.75
   10.4911     30.93     30.67    -26.11     20.75
   10.5013     32.05     30.69    -25.02     20.75
   10.5115     31.69     30.72    -25.41     20.75
   10.5216     30.68     30.75    -26.45     20.75
   10.5318     31.88     30.78    -25.28     20.74
   10.5420     31.27     30.81    -25.92     20.74
   10.5521     31.42     30.84    -25.80     20.74
   10.5623     32.05     30.87    -25.20     20.74
   10.5724     31.14     30.90    -26.14     20.74
   10.5826     31.45     30.93    -25.86     20.74
   10.5928     32.15     30.96    -25.19     20.74
   10.6029     32.05     30.99    -25.32     20.74
   10.6131     31.88     31.02    -25.52     20.74
   10.6233     31.68     31.05    -25.75     20.74
   10.6334     32.82     31.08    -24.64     20.74
   10.6436     32.12     31.11    -25.37     20.74
   10.6538     33.46     31.14    -24.06     20.74
   10.6639     32.85     31.17    -24.70     20.74
   10.6741     31.92     31.20    -25.66     20.74
   10.6843     33.08     31.24    -24.53     20.74
   10.6944     32.54     31.27    -25.10     20.74
   10.7046     32.50     31.30    -25.18     20.74
   10.7147     32.83     31.33    -24.88     20.74
   10.7249     32.53     31.36    -25.21     20.74
   10.7351     32.37     31.39    -25.40     20.74
   10.7452     32.61     31.42    -25.19     20.74
   10.7554     32.54     31.46    -25.29     20.74
   10.7656     32.38     31.49    -25.49     20.74
   10.7757     32.29     31.52    -25.61     20.74
   10.7859     32.93     31.55    -25.00     20.73
   10.7961     32.37     31.58    -25.59     20.73
   10.8062     32.82     31.62    -25.17     20.73
   10.8164     33.00     31.65    -25.03     20.73
   10.8266     32.51     31.68    -25.55     20.73
   10.8367     32.68     31.71    -25.41     20.73
   10.8469     32.22     31.75    -25.91     20.73
   10.8571     32.27     31.78    -25.89     20.73
   10.8672     33.34     31.81    -24.85     20.73
   10.8774     32.21     31.85    -26.01     20.73
   10.8875     32.36     31.88    -25.90     20.73
   10.8977     32.38     31.91    -25.91     20.73
   10.9079     31.71     31.95    -26.62     20.73
   10.9180     32.52     31.98    -25.84     20.73
   10.9282     32.37     32.01    -26.02     20.73
   10.9384     33.12     32.05    -25.31     20.73
   10.9485     31.97     32.08    -26.49     20.73
   10.9587     33.07     32.12    -25.42     20.73
   10.9689     32.99     32.15    -25.54     20.73
   10.9790     32.51     32.19    -26.05     20.73
   10.9892     31.94     32.22    -26.66     20.73
   10.9994     33.13     32.26    -25.50     20.73
   11.0095     32.08     32.29    -26.59     20.73
   11.0197     33.55     32.32    -25.15     20.73
   11.0298     33.57     32.36    -25.17     20.73
   11.0400     32.19     32.40    -26.58     20.72
   11.0502     33.41     32.43    -25.40     20.72
   11.0603     33.45     32.47    -25.39     20.72
   11.0705     33.32     32.50    -25.56     20.72
   11.0807     33.71     32.54    -25.21     20.72
   11.0908     33.04     32.57    -25.91     20.72
   11.1010     33.04     32.61    -25.95     20.72
   11.1112     33.41     32.65    -25.61     20.72
   11.1213     33.65     32.68    -25.41     20.72
   11.1315     33.41     32.72    -25.69     20.72
   11.1417     32.53     32.75    -26.60     20.72
   11.1518     32.98     32.79    -26.19     20.72
   11.1620     33.33     32.83    -25.88     20.72
   11.1722     32.82     32.86    -26.42     20.72
   11.1823     33.15     32.90    -26.13     20.72
   11.1925     33.77     32.94    -25.55     20.72
   11.2026     33.57     32.98    -25.78     20.72
   11.2128     34.22     33.01    -25.17     20.72
   11.2230     33.95     33.05    -25.48     20.72
   11.2331     33.10     33.09    -26.37     20.72
   11.2433     33.20     33.13    -26.30     20.72
   11.2535     33.69     33.16    -25.85     20.72
   11.2636     34.77     33.20    -24.81     20.72
   11.2738     33.55     33.24    -26.07     20.72
   11.2840     34.13     33.28    -25.53     20.72
   11.2941     34.22     33.32    -25.48     20.71
   11.3043     33.82     33.36    -25.91     20.71
   11.3145     34.29     33.39    -25.48     20.71
   11.3246     33.31     33.43    -26.50     20.71
   11.3348     34.77     33.47    -25.08     20.71
   11.3449     34.65     33.51    -25.24     20.71
   11.3551     33.71     33.55    -26.22     20.71
   11.3653     33.09     33.59    -26.88     20.71
   11.3754     34.69     33.63    -25.32     20.71
   11.3856     34.73     33.67    -25.32     20.71
   11.3958     33.21     33.71    -26.88     20.71
   11.4059     34.07     33.75    -26.06     20.71
   11.4161     34.45     33.79    -25.72     20.71
   11.4263     34.29     33.83    -25.92     20.71
   11.4364     33.66     33.87    -26.59     20.71
   11.4466     33.49     33.91    -26.80     20.71
   11.4568     33.63     33.95    -26.70     20.71
   11.4669     33.92     33.99    -26.45     20.71
   11.4771     34.95     34.03    -25.46     20.71
   11.4873     34.17     34.07    -26.28     20.71
   11.4974     35.17     34.11    -25.32     20.71
   11.5076     34.87     34.16    -25.66     20.71
   11.5177     34.93     34.20    -25.65     20.71
   11.5279     34.65     34.24    -25.97     20.71
   11.5381     34.84     34.28    -25.82     20.71
   11.5482     34.93     34.32    -25.77     20.71
   11.5584     35.91     34.37    -24.83     20.70
   11.5686     34.44     34.41    -26.35     20.70
   11.5787     35.38     34.45    -25.45     20.70
   11.5889     35.12     34.49    -25.75     20.70
   11.5991     35.20     34.54    -25.71     20.70
   11.6092     35.16     34.58    -25.80     20.70
   11.6194     35.36     34.62    -25.64     20.70
   11.6296     34.62     34.66    -26.42     20.70
   11.6397     34.55     34.71    -26.53     20.70
   11.6499     35.26     34.75    -25.87     20.70
   11.6600     35.42     34.79    -25.75     20.70
   11.6702     35.77     34.84    -25.45     20.70
   11.6804     35.28     34.88    -25.98     20.70
   11.6905     34.88     34.92    -26.42     20.70
   11.7007     35.41     34.97    -25.94     20.70
   11.7109     34.68     35.01    -26.71     20.70
   11.7210     35.16     35.06    -26.28     20.70
   11.7312     35.43     35.10    -26.05     20.70
   11.7414     35.73     35.15    -25.80     20.70
   11.7515     35.04     35.19    -26.53     20.70
   11.7617     35.77     35.24    -25.84     20.70
   11.7719     35.60     35.28    -26.06     20.70
   11.7820     35.23     35.33    -26.48     20.70
   11.7922     35.99     35.37    -25.76     20.70
   11.8023     36.10     35.42    -25.70     20.70
   11.8125     35.57     35.46    -26.27     20.69
   11.8227     36.62     35.51    -25.27     20.69
   11.8328     35.61     35.56    -26.32     20.69
   11.8430     36.15     35.60    -25.83     20.69
   11.8532     36.91     35.65    -25.12     20.69
   11.8633     36.37     35.69    -25.70     20.69
   11.8735     36.35     35.74    -25.77     20.69
   11.8837     36.12     35.79    -26.05     20.69
   11.8938     36.46     35.84    -25.75     20.69
   11.9040     36.02     35.88    -26.24     20.69
   11.9142     36.46     35.93    -25.85     20.69
   11.9243     37.20     35.98    -25.15     20.69
   11.9345     36.20     36.02    -26.20     20.69
   11.9447     36.95     36.07    -25.50     20.69
   11.9548     36.37     36.12    -26.13     20.69
   11.9650     36.15     36.17    -26.40     20.69
   11.9751     37.35     36.22    -25.24     20.69
   11.9853     36.52     36.26    -26.12     20.69
   11.9955     36.60     36.31    -26.09     20.69
   12.0056     36.29     36.36    -26.45     20.69
   12.0158     36.63     36.41    -26.16     20.69
   12.0260     36.68     36.46    -26.16     20.69
   12.0361     36.45     36.51    -26.44     20.69
   12.0463     37.34     36.56    -25.60     20.69
   12.0565     37.21     36.61    -25.78     20.69
   12.0666     37.00     36.66    -26.03     20.68
   12.0768     36.54     36.71    -26.54     20.68
   12.0870     36.74     36.76    -26.39     20.68
   12.0971     36.46     36.81    -26.72     20.68
   12.1073     37.03     36.86    -26.20     20.68
   12.1174     37.03     36.91    -26.25     20.68
   12.1276     37.44     36.96    -25.90     20.68
   12.1378     36.91     37.01    -26.48     20.68
   12.1479     36.90     37.06    -26.54     20.68
   12.1581     36.48     37.11    -27.01     20.68
   12.1683     37.66     37.16    -25.88     20.68
   12.1784     37.47     37.21    -26.12     20.68
   12.1886     37.43     37.26    -26.21     20.68
   12.1988     36.92     37.32    -26.77     20.68
   12.2089     37.70     37.37    -26.05     20.68
   12.2191     38.25     37.42    -25.55     20.68
   12.2293     38.09     37.47    -25.76     20.68
   12.2394     36.80     37.52    -27.10     20.68
   12.2496     38.53     37.58    -25.42     20.68
   12.2598     37.10     37.63    -26.91     20.68
   12.2699     37.56     37.68    -26.50     20.68
   12.2801     39.01     37.74    -25.10     20.68
   12.2902     38.24     37.79    -25.93     20.68
   12.3004     37.55     37.84    -26.67     20.68
   12.3106     39.16     37.90    -25.11     20.68
   12.3207     37.60     37.95    -26.73     20.67
   12.3309     38.43     38.00    -25.95     20.67
   12.3411     38.71     38.06    -25.72     20.67
   12.3512     37.64     38.11    -26.85     20.67
   12.3614     38.88     38.16    -25.66     20.67
   12.3716     37.40     38.22    -27.20     20.67
   12.3817     37.99     38.27    -26.66     20.67
   12.3919     38.55     38.33    -26.16     20.67
   12.4021     39.60     38.38    -25.16     20.67
   12.4122     38.01     38.44    -26.81     20.67
   12.4224     38.54     38.49    -26.33     20.67
   12.4325     39.41     38.55    -25.52     20.67
   12.4427     38.99     38.61    -25.99     20.67
   12.4529     38.67     38.66    -26.37     20.67
   12.4630     38.91     38.72    -26.18     20.67
   12.4732     39.27     38.77    -25.88     20.67
   12.4834     39.36     38.83    -25.85     20.67
   12.4935     38.53     38.89    -26.73     20.67
   12.5037     38.79     38.94    -26.53     20.67
   12.5139     38.77     39.00    -26.61     20.67
   12.5240     38.30     39.06    -27.13     20.67
   12.5342     39.31     39.11    -26.18     20.67
   12.5444     39.29     39.17    -26.26     20.67
   12.5545     38.00     39.23    -27.61     20.67
   12.5647     39.43     39.29    -26.23     20.67
   12.5749     38.68     39.34    -27.04     20.66
   12.5850     40.00     39.40    -25.78     20.66
   12.5952     38.97     39.46    -26.87     20.66
   12.6053     39.93     39.52    -25.97     20.66
   12.6155     39.76     39.58    -26.20     20.66
   12.6257     39.54     39.64    -26.47     20.66
   12.6358     39.88     39.69    -26.19     20.66
   12.6460     41.18     39.75    -24.95     20.66
   12.6562     39.62     39.81    -26.57     20.66
   12.6663     39.64     39.87    -26.61     20.66
   12.6765     39.62     39.93    -26.69     20.66
   12.6867     39.66     39.99    -26.71     20.66
   12.6968     40.06     40.05    -26.37     20.66
   12.7070     40.32     40.11    -26.17     20.66
   12.7172     40.52     40.17    -26.03     20.66
   12.7273     39.49     40.23    -27.12     20.66
   12.7375     39.86     40.29    -26.81     20.66
   12.7476     40.07     40.35    -26.66     20.66
   12.7578     40.15     40.42    -26.64     20.66
   12.7680     40.18     40.48    -26.67     20.66
   12.7781     40.62     40.54    -26.30     20.66
   12.7883     40.42     40.60    -26.56     20.66
   12.7985     40.70     40.66    -26.34     20.66
   12.8086     40.88     40.72    -26.22     20.66
   12.8188     41.17     40.78    -25.99     20.66
   12.8290     41.38     40.85    -25.85     20.65
   12.8391     41.71     40.91    -25.58     20.65
   12.8493     41.43     40.97    -25.92     20.65
   12.8595     41.30     41.04    -26.11     20.65
   12.8696     40.86     41.10    -26.62     20.65
   12.8798     41.25     41.16    -26.29     20.65
   12.8900     41.62     41.22    -25.98     20.65
   12.9001     41.57     41.29    -26.10     20.65
   12.9103     41.62     41.35    -26.11     20.65
   12.9204     41.94     41.42    -25.85     20.65
   12.9306     41.71     41.48    -26.15     20.65
   12.9408     41.59     41.54    -26.33     20.65
   12.9509     41.32     41.61    -26.67     20.65
   12.9611     41.73     41.67    -26.32     20.65
   12.9713     41.76     41.74    -26.36     20.65
   12.9814     41.41     41.80    -26.77     20.65
   12.9916     41.56     41.87    -26.69     20.65
   13.0018     41.89     41.93    -26.42     20.65
   13.0119     41.76     42.00    -26.62     20.65
   13.0221     41.65     42.06    -26.79     20.65
   13.0323     42.37     42.13    -26.14     20.65
   13.0424     43.07     42.20    -25.50     20.65
   13.0526     43.16     42.26    -25.48     20.65
   13.0627     42.59     42.33    -26.12     20.65
   13.0729     42.65     42.40    -26.12     20.65
   13.0831     42.37     42.46    -26.47     20.64
   13.0932     42.87     42.53    -26.04     20.64
   13.1034     42.53     42.60    -26.44     20.64
   13.1136     42.90     42.66    -26.14     20.64
   13.1237     42.33     42.73    -26.78     20.64
   13.1339     43.46     42.80    -25.72     20.64
   13.1441     43.05     42.87    -26.20     20.64
   13.1542     42.70     42.94    -26.61     20.64
   13.1644     43.76     43.00    -25.62     20.64
   13.1746     42.62     43.07    -26.83     20.64
   13.1847     42.51     43.14    -27.01     20.64
   13.1949     43.29     43.21    -26.30     20.64
   13.2051     43.46     43.28    -26.20     20.64
   13.2152     43.15     43.35    -26.58     20.64
   13.2254     44.37     43.42    -25.43     20.64
   13.2355     43.82     43.49    -26.04     20.64
   13.2457     43.99     43.56    -25.94     20.64
   13.2559     43.68     43.63    -26.33     20.64
   13.2660     43.74     43.70    -26.33     20.64
   13.2762     43.82     43.77    -26.33     20.64
   13.2864     43.95     43.84    -26.27     20.64
   13.2965     42.79     43.91    -27.50     20.64
   13.3067     44.09     43.98    -26.27     20.64
   13.3169     43.37     44.05    -27.06     20.64
   13.3270     44.98     44.12    -25.52     20.64
   13.3372     44.33     44.19    -26.24     20.63
   13.3474     44.84     44.27    -25.80     20.63
   13.3575     44.47     44.34    -26.25     20.63
   13.3677     43.82     44.41    -26.97     20.63
   13.3778     44.51     44.48    -26.35     20.63
   13.3880     44.34     44.55    -26.59     20.63
   13.3982     45.09     44.63    -25.92     20.63
   13.4083     45.10     44.70    -25.98     20.63
   13.4185     44.67     44.77    -26.48     20.63
   13.4287     45.55     44.85    -25.67     20.63
   13.4388     45.06     44.92    -26.24     20.63
   13.4490     44.79     44.99    -26.58     20.63
   13.4592     45.91     45.07    -25.54     20.63
   13.4693     44.09     45.14    -27.43     20.63
   13.4795     45.70     45.22    -25.89     20.63
   13.4897     45.73     45.29    -25.94     20.63
   13.4998     45.29     45.37    -26.45     20.63
   13.5100     45.59     45.44    -26.23     20.63
   13.5201     46.46     45.52    -25.43     20.63
   13.5303     44.94     45.59    -27.03     20.63
   13.5405     45.80     45.67    -26.24     20.63
   13.5506     45.77     45.74    -26.35     20.63
   13.5608     45.44     45.82    -26.76     20.63
   13.5710     46.56     45.89    -25.71     20.63
   13.5811     46.32     45.97    -26.03     20.63
   13.5913     46.47     46.05    -25.95     20.63
   13.6015     46.90     46.12    -25.60     20.62
   13.6116     46.52     46.20    -26.06     20.62
   13.6218     46.11     46.28    -26.55     20.62
   13.6320     46.71     46.36    -26.02     20.62
   13.6421     46.79     46.43    -26.02     20.62
   13.6523     46.29     46.51    -26.60     20.62
   13.6625     47.12     46.59    -25.85     20.62
   13.6726     47.46     46.67    -25.58     20.62
   13.6828     47.15     46.75    -25.97     20.62
   13.6929     47.57     46.82    -25.63     20.62
   13.7031     47.54     46.90    -25.74     20.62
   13.7133     46.84     46.98    -26.52     20.62
   13.7234     46.77     47.06    -26.67     20.62
   13.7336     47.49     47.14    -26.03     20.62
   13.7438     48.25     47.22    -25.35     20.62
   13.7539     47.50     47.30    -26.18     20.62
   13.7641     47.35     47.38    -26.41     20.62
   13.7743     48.19     47.46    -25.65     20.62
   13.7844     47.52     47.54    -26.40     20.62
   13.7946     47.82     47.62    -26.18     20.62
   13.8048     48.40     47.70    -25.68     20.62
   13.8149     47.52     47.78    -26.64     20.62
   13.8251     48.65     47.86    -25.59     20.62
   13.8352     48.76     47.95    -25.56     20.62
   13.8454     47.05     48.03    -27.36     20.62
   13.8556     48.51     48.11    -25.98     20.61
   13.8657     49.31     48.19    -25.26     20.61
   13.8759     49.69     48.27    -24.96     20.61
   13.8861     47.86     48.36    -26.88     20.61
   13.8962     48.96     48.44    -25.86     20.61
   13.9064     49.12     48.52    -25.78     20.61
   13.9166     48.98     48.61    -26.01     20.61
   13.9267     49.26     48.69    -25.81     20.61
   13.9369     48.95     48.77    -26.20     20.61
   13.9471     49.62     48.86    -25.62     20.61
   13.9572     49.44     48.94    -25.88     20.61
   13.9674     49.03     49.03    -26.38     20.61
   13.9776     49.08     49.11    -26.41     20.61
   13.9877     48.23     49.20    -27.35     20.61
   13.9979     49.93     49.28    -25.73     20.61
   14.0080     50.54     49.37    -25.21     20.61
   14.0182     50.70     49.45    -25.13     20.61
   14.0284     50.96     49.54    -24.96     20.61
   14.0385     49.68     49.63    -26.32     20.61
   14.0487     49.49     49.71    -26.60     20.61
   14.0589     49.45     49.80    -26.73     20.61
   14.0690     50.82     49.89    -25.44     20.61
   14.0792     50.24     49.97    -26.11     20.61
   14.0894     50.60     50.06    -25.84     20.61
   14.0995     51.47     50.15    -25.06     20.61
   14.1097     50.81     50.24    -25.81     20.60
   14.1199     51.70     50.33    -25.00     20.60
   14.1300     50.93     50.41    -25.86     20.60
   14.1402     50.40     50.50    -26.48     20.60
   14.1503     51.54     50.59    -25.43     20.60
   14.1605     52.14     50.68    -24.92     20.60
   14.1707     50.37     50.77    -26.78     20.60
   14.1808     50.60     50.86    -26.64     20.60
   14.1910     52.07     50.95    -25.26     20.60
   14.2012     51.87     51.04    -25.55     20.60
   14.2113     51.91     51.13    -25.60     20.60
   14.2215     52.70     51.22    -24.90     20.60
   14.2317     51.77     51.31    -25.92     20.60
   14.2418     51.55     51.40    -26.23     20.60
   14.2520     52.55     51.50    -25.32     20.60
   14.2622     52.31     51.59    -25.66     20.60
   14.2723     52.83     51.68    -25.23     20.60
   14.2825     53.42     51.77    -24.73     20.60
   14.2927     51.79     51.87    -26.45     20.60
   14.3028     52.22     51.96    -26.12     20.60
   14.3130     53.56     52.05    -24.87     20.60
   14.3231     52.15     52.15    -26.37     20.60
   14.3333     53.34     52.24    -25.28     20.60
   14.3435     54.07     52.33    -24.64     20.60
   14.3536     54.48     52.43    -24.33     20.60
   14.3638     52.92     52.52    -25.98     20.59
   14.3740     54.42     52.62    -24.58     20.59
   14.3841     52.90     52.71    -26.19     20.59
   14.3943     53.60     52.81    -25.59     20.59
   14.4045     53.51     52.91    -25.77     20.59
   14.4146     54.27     53.00    -25.11     20.59
   14.4248     54.23     53.10    -25.25     20.59
   14.4350     54.82     53.20    -24.75     20.59
   14.4451     55.10     53.29    -24.57     20.59
   14.4553     55.16     53.39    -24.61     20.59
   14.4654     55.71     53.49    -24.16     20.59
   14.4756     54.73     53.59    -25.24     20.59
   14.4858     54.33     53.69    -25.73     20.59
   14.4959     55.08     53.79    -25.08     20.59
   14.5061     55.12     53.89    -25.14     20.59
   14.5163     55.04     53.99    -25.32     20.59
   14.5264     55.70     54.08    -24.76     20.59
   14.5366     55.12     54.19    -25.44     20.59
   14.5468     55.58     54.29    -25.08     20.59
   14.5569     55.90     54.39    -24.87     20.59
   14.5671     55.74     54.49    -25.13     20.59
   14.5773     55.29     54.59    -25.68     20.59
   14.5874     57.69     54.69    -23.38     20.59
   14.5976     56.05     54.80    -25.12     20.59
   14.6078     55.65     54.90    -25.63     20.59
   14.6179     56.81     55.00    -24.57     20.58
   14.6281     55.64     55.11    -25.84     20.58
   14.6382     55.82     55.21    -25.77     20.58
   14.6484     56.60     55.32    -25.09     20.58
   14.6586     56.52     55.42    -25.28     20.58
   14.6687     56.75     55.53    -25.15     20.58
   14.6789     57.58     55.63    -24.43     20.58
   14.6891     56.60     55.74    -25.52     20.58
   14.6992     57.30     55.84    -24.92     20.58
   14.7094     58.46     55.95    -23.87     20.58
   14.7196     57.09     56.06    -25.35     20.58
   14.7297     56.94     56.17    -25.61     20.58
   14.7399     57.72     56.28    -24.93     20.58
   14.7501     58.05     56.38    -24.71     20.58
   14.7602     58.80     56.49    -24.07     20.58
   14.7704     58.45     56.60    -24.53     20.58
   14.7805     58.35     56.71    -24.74     20.58
   14.7907     58.65     56.82    -24.55     20.58
   14.8009     58.69     56.94    -24.62     20.58
   14.8110     58.82     57.05    -24.60     20.58
   14.8212     58.97     57.16    -24.57     20.58
   14.8314     57.49     57.27    -26.16     20.58
   14.8415     58.98     57.38    -24.78     20.58
   14.8517     58.37     57.50    -25.51     20.58
   14.8619     58.37     57.61    -25.62     20.58
   14.8720     58.46     57.73    -25.64     20.57
   14.8822     59.57     57.84    -24.65     20.57
   14.8924     60.37     57.96    -23.97     20.57
   14.9025     59.76     58.07    -24.69     20.57
   14.9127     59.49     58.19    -25.08     20.57
   14.9229     60.43     58.31    -24.25     20.57
   14.9330     59.58     58.42    -25.22     20.57
   14.9432     60.77     58.54    -24.15     20.57
   14.9533     60.49     58.66    -24.55     20.57
   14.9635     60.82     58.78    -24.34     20.57
   14.9737     61.58     58.90    -23.70     20.57
   14.9838     60.27     59.02    -25.13     20.57
   14.9940     61.13     59.14    -24.39     20.57
   15.0042     60.39     59.26    -25.25     20.57
   15.0143     60.06     59.38    -25.70     20.57
   15.0245     60.92     59.51    -24.96     20.57
   15.0347     61.65     59.63    -24.36     20.57
   15.0448     61.13     59.75    -25.00     20.57
   15.0550     62.43     59.88    -23.83     20.57
   15.0652     61.32     60.00    -25.06     20.57
   15.0753     63.20     60.13    -23.31     20.57
   15.0855     61.88     60.26    -24.75     20.57
   15.0956     62.12     60.38    -24.64     20.57
   15.1058     62.64     60.51    -24.25     20.57
   15.1160     64.55     60.64    -22.47     20.57
   15.1261     61.21     60.77    -25.93     20.56
   15.1363     63.32     60.90    -23.95     20.56
   15.1465     63.16     61.03    -24.24     20.56
   15.1566     63.35     61.16    -24.18     20.56
   15.1668     62.93     61.29    -24.74     20.56
   15.1770     63.85     61.42    -23.95     20.56
   15.1871     63.66     61.55    -24.27     20.56
   15.1973     64.35     61.69    -23.71     20.56
   15.2075     63.21     61.82    -24.99     20.56
   15.2176     64.68     61.95    -23.65     20.56
   15.2278     63.47     62.09    -25.00     20.56
   15.2380     64.46     62.23    -24.14     20.56
   15.2481     65.23     62.36    -23.51     20.56
   15.2583     65.03     62.50    -23.85     20.56
   15.2684     62.36     62.64    -26.66     20.56
   15.2786     65.55     62.78    -23.60     20.56
   15.2888     64.68     62.92    -24.61     20.56
   15.2989     64.77     63.06    -24.66     20.56
   15.3091     65.53     63.20    -24.05     20.56
   15.3193     65.78     63.34    -23.94     20.56
   15.3294     65.66     63.48    -24.20     20.56
   15.3396     64.16     63.63    -25.84     20.56
   15.3498     66.87     63.77    -23.28     20.56
   15.3599     65.65     63.91    -24.64     20.56
   15.3701     65.80     64.06    -24.64     20.56
   15.3803     66.75     64.21    -23.84     20.56
   15.3904     67.91     64.35    -22.82     20.55
   15.4006     66.09     64.50    -24.79     20.55
   15.4107     67.58     64.65    -23.45     20.55
   15.4209     66.27     64.80    -24.91     20.55
   15.4311     66.18     64.95    -25.15     20.55
   15.4412     66.86     65.10    -24.62     20.55
   15.4514     67.23     65.25    -24.40     20.55
   15.4616     67.98     65.41    -23.81     20.55
   15.4717     67.20     65.56    -24.74     20.55
   15.4819     67.59     65.72    -24.50     20.55
   15.4921     67.02     65.87    -25.23     20.55
   15.5022     68.87     66.03    -23.53     20.55
   15.5124     68.88     66.18    -23.68     20.55
   15.5226     68.45     66.34    -24.27     20.55
   15.5327     69.67     66.50    -23.21     20.55
   15.5429     68.59     66.66    -24.45     20.55
   15.5530     68.65     66.82    -24.55     20.55
   15.5632     69.51     66.98    -23.85     20.55
   15.5734     67.63     67.14    -25.89     20.55
   15.5835     68.59     67.31    -25.09     20.55
   15.5937     69.68     67.47    -24.17     20.55
   15.6039     69.13     67.64    -24.88     20.55
   15.6140     70.55     67.80    -23.63     20.55
   15.6242     70.46     67.97    -23.89     20.55
   15.6344     70.23     68.14    -24.28     20.55
   15.6445     70.79     68.30    -23.89     20.54
   15.6547     71.05     68.47    -23.80     20.54
   15.6649     71.85     68.64    -23.17     20.54
   15.6750     71.67     68.81    -23.52     20.54
   15.6852     70.86     68.98    -24.50     20.54
   15.6954     72.34     69.16    -23.20     20.54
   15.7055     71.23     69.33    -24.48     20.54
   15.7157     71.36     69.50    -24.52     20.54
   15.7258     71.69     69.68    -24.37     20.54
   15.7360     72.26     69.86    -23.97     20.54
   15.7462     71.54     70.03    -24.87     20.54
   15.7563     72.33     70.21    -24.26     20.54
   15.7665     72.30     70.39    -24.47     20.54
   15.7767     72.48     70.57    -24.47     20.54
   15.7868     73.50     70.75    -23.63     20.54
   15.7970     72.38     70.93    -24.93     20.54
   15.8072     72.42     71.11    -25.07     20.54
   15.8173     71.20     71.29    -26.47     20.54
   15.8275     73.99     71.48    -23.87     20.54
   15.8377     73.07     71.66    -24.97     20.54
   15.8478     73.18     71.85    -25.05     20.54
   15.8580     73.64     72.04    -24.77     20.54
   15.8681     73.68     72.22    -24.92     20.54
   15.8783     74.90     72.41    -23.89     20.54
   15.8885     73.46     72.60    -25.52     20.54
   15.8986     74.59     72.79    -24.58     20.53
   15.9088     73.01     72.98    -26.35     20.53
   15.9190     74.55     73.17    -25.00     20.53
   15.9291     75.20     73.37    -24.54     20.53
   15.9393     76.98     73.56    -22.96     20.53
   15.9495     74.58     73.75    -25.55     20.53
   15.9596     75.21     73.95    -25.12     20.53
   15.9698     73.74     74.14    -26.78     20.53
   15.9800     74.98     74.34    -25.74     20.53
   15.9901     74.29     74.54    -26.63     20.53
   16.0003     74.93     74.74    -26.19     20.53
   16.0105     75.27     74.94    -26.04     20.53
   16.0206     76.12     75.14    -25.39     20.53
   16.0308     76.87     75.34    -24.84     20.53
   16.0409     77.32     75.54    -24.59     20.53
   16.0511     77.12     75.74    -25.00     20.53
   16.0613     75.78     75.94    -26.54     20.53
   16.0714     75.66     76.15    -26.86     20.53
   16.0816     76.17     76.35    -26.56     20.53
   16.0918     77.37     76.56    -25.57     20.53
   16.1019     76.13     76.76    -27.01     20.53
   16.1121     78.65     76.97    -24.70     20.53
   16.1223     77.73     77.18    -25.83     20.53
   16.1324     78.61     77.38    -25.15     20.53
   16.1426     78.64     77.59    -25.33     20.53
   16.1528     78.90     77.80    -25.28     20.52
   16.1629     78.53     78.01    -25.86     20.52
   16.1731     79.32     78.22    -25.28     20.52
   16.1832     78.26     78.43    -26.55     20.52
   16.1934     79.92     78.65    -25.10     20.52
   16.2036     79.54     78.86    -25.70     20.52
   16.2137     78.50     79.07    -26.95     20.52
   16.2239     79.88     79.29    -25.78     20.52
   16.2341     79.33     79.50    -26.55     20.52
   16.2442     80.44     79.72    -25.65     20.52
   16.2544     79.68     79.93    -26.63     20.52
   16.2646     80.32     80.15    -26.21     20.52
   16.2747     79.43     80.36    -27.31     20.52
   16.2849     80.71     80.58    -26.25     20.52
   16.2951     80.73     80.80    -26.45     20.52
   16.3052     81.12     81.02    -26.28     20.52
   16.3154     82.61     81.24    -25.00     20.52
   16.3256     82.97     81.46    -24.86     20.52
   16.3357     81.95     81.67    -26.10     20.52
   16.3459     80.82     81.89    -27.45     20.52
   16.3560     83.37     82.11    -25.12     20.52
   16.3662     83.41     82.33    -25.30     20.52
   16.3764     83.37     82.56    -25.56     20.52
   16.3865     82.32     82.78    -26.83     20.52
   16.3967     83.12     83.00    -26.26     20.52
   16.4069     83.41     83.22    -26.19     20.51
   16.4170     86.04     83.44    -23.78     20.51
   16.4272     83.80     83.67    -26.24     20.51
   16.4374     83.35     83.89    -26.92     20.51
   16.4475     83.55     84.11    -26.94     20.51
   16.4577     83.94     84.33    -26.77     20.51
   16.4679     84.63     84.56    -26.31     20.51
   16.4780     84.84     84.78    -26.32     20.51
   16.4882     83.44     85.00    -27.94     20.51
   16.4983     85.43     85.23    -26.17     20.51
   16.5085     86.35     85.45    -25.48     20.51
   16.5187     86.06     85.68    -25.99     20.51
   16.5288     86.60     85.90    -25.68     20.51
   16.5390     87.09     86.12    -25.41     20.51
   16.5492     87.38     86.35    -25.34     20.51
   16.5593     85.24     86.57    -27.71     20.51
   16.5695     86.64     86.79    -26.53     20.51
   16.5797     85.99     87.02    -27.41     20.51
   16.5898     87.32     87.24    -26.30     20.51
   16.6000     87.52     87.46    -26.32     20.51
   16.6102     86.99     87.69    -27.08     20.51
   16.6203     88.66     87.91    -25.63     20.51
   16.6305     89.09     88.13    -25.42     20.51
   16.6407     86.75     88.35    -27.98     20.51
   16.6508     89.04     88.58    -25.91     20.51
   16.6610     88.70     88.80    -26.48     20.50
   16.6711     89.95     89.02    -25.45     20.50
   16.6813     89.57     89.24    -26.05     20.50
   16.6915     90.44     89.46    -25.40     20.50
   16.7016     89.14     89.68    -26.92     20.50
   16.7118     89.53     89.90    -26.75     20.50
   16.7220     90.97     90.12    -25.53     20.50
   16.7321     91.31     90.34    -25.40     20.50
   16.7423     90.61     90.56    -26.32     20.50
   16.7525     90.85     90.77    -26.30     20.50
   16.7626     91.57     90.99    -25.80     20.50
   16.7728     93.96     91.21    -23.62     20.50
   16.7830     91.85     91.42    -25.95     20.50
   16.7931     92.40     91.64    -25.61     20.50
   16.8033     91.68     91.85    -26.55     20.50
   16.8134     91.74     92.06    -26.70     20.50
   16.8236     92.17     92.28    -26.48     20.50
   16.8338     93.46     92.49    -25.41     20.50
   16.8439     94.62     92.70    -24.46     20.50
   16.8541     92.22     92.91    -27.07     20.50
   16.8643     93.71     93.12    -25.79     20.50
   16.8744     94.82     93.33    -24.88     20.50
   16.8846     95.96     93.53    -23.95     20.50
   16.8948     93.36     93.74    -26.76     20.50
   16.9049     93.46     93.95    -26.86     20.50
   16.9151     94.92     94.15    -25.61     20.49
   16.9253     93.77     94.35    -26.96     20.49
   16.9354     94.52     94.56    -26.41     20.49
   16.9456     93.70     94.76    -27.44     20.49
   16.9558     96.22     94.96    -25.12     20.49
   16.9659     93.87     95.16    -27.66     20.49
   16.9761     94.14     95.36    -27.59     20.49
   16.9862     96.45     95.55    -25.48     20.49
   16.9964     96.16     95.75    -25.96     20.49
   17.0066     96.45     95.94    -25.87     20.49
   17.0167     94.98     96.13    -27.53     20.49
   17.0269     97.44     96.33    -25.27     20.49
   17.0371     95.87     96.52    -27.03     20.49
   17.0472     95.77     96.71    -27.32     20.49
   17.0574     97.81     96.90    -25.46     20.49
   17.0676     95.79     97.08    -27.67     20.49
   17.0777     96.07     97.27    -27.58     20.49
   17.0879     97.71     97.46    -26.12     20.49
   17.0981     96.66     97.64    -27.36     20.49
   17.1082     98.39     97.82    -25.81     20.49
   17.1184     97.07     98.00    -27.31     20.49
   17.1285     97.92     98.18    -26.64     20.49
   17.1387     97.24     98.36    -27.50     20.49
   17.1489     98.08     98.54    -26.84     20.49
   17.1590     97.85     98.72    -27.25     20.49
   17.1692     97.97     98.90    -27.30     20.49
   17.1794     98.93     99.07    -26.52     20.48
   17.1895     98.76     99.25    -26.86     20.48
   17.1997     99.51     99.42    -26.29     20.48
   17.2099     98.93     99.59    -27.04     20.48
   17.2200     99.49     99.77    -26.65     20.48
   17.2302    100.34     99.94    -25.98     20.48
   17.2404     99.69    100.11    -26.80     20.48
   17.2505     99.95    100.28    -26.71     20.48
   17.2607     99.41    100.45    -27.42     20.48
   17.2709    100.77    100.62    -26.23     20.48
   17.2810     99.71    100.79    -27.45     20.48
   17.2912     99.45    100.96    -27.88     20.48
   17.3013    100.65    101.12    -26.85     20.48
   17.3115    103.52    101.29    -24.15     20.48
   17.3217    101.67    101.46    -26.17     20.48
   17.3318    101.37    101.63    -26.64     20.48
   17.3420    101.42    101.80    -26.76     20.48
   17.3522    103.11    101.97    -25.24     20.48
   17.3623    102.94    102.15    -25.58     20.48
   17.3725    101.12    102.32    -27.58     20.48
   17.3827    103.38    102.49    -25.49     20.48
   17.3928    103.56    102.67    -25.48     20.48
   17.4030    101.66    102.84    -27.56     20.48
   17.4132    103.21    103.02    -26.19     20.48
   17.4233    103.56    103.20    -26.02     20.48
   17.4335    104.05    103.39    -25.71     20.47
   17.4436    104.54    103.57    -25.41     20.47
   17.4538    104.83    103.76    -25.31     20.47
   17.4640    104.51    103.95    -25.82     20.47
   17.4741    105.77    104.14    -24.75     20.47
   17.4843    105.26    104.34    -25.46     20.47
   17.4945    106.37    104.55    -24.56     20.47
   17.5046    106.53    104.75    -24.60     20.47
   17.5148    106.90    104.97    -24.45     20.47
   17.5250    106.30    105.19    -25.26     20.47
   17.5351    106.57    105.41    -25.22     20.47
   17.5453    106.76    105.64    -25.26     20.47
   17.5555    107.63    105.88    -24.63     20.47
   17.5656    108.16    106.12    -24.34     20.47
   17.5758    108.69    106.37    -24.06     20.47
   17.5859    108.66    106.63    -24.35     20.47
   17.5961    107.60    106.90    -25.68     20.47
   17.6063    109.05    107.18    -24.51     20.47
   17.6164    108.82    107.47    -25.03     20.47
   17.6266    108.87    107.77    -25.28     20.47
   17.6368    110.98    108.08    -23.48     20.47
   17.6469    110.52    108.40    -24.26     20.47
   17.6571    110.83    108.74    -24.29     20.47
   17.6673    112.68    109.09    -22.79     20.47
   17.6774    110.08    109.45    -25.75     20.47
   17.6876    111.91    109.83    -24.30     20.46
   17.6978    112.04    110.23    -24.57     20.46
   17.7079    112.00    110.64    -25.02     20.46
   17.7181    112.41    111.07    -25.04     20.46
   17.7283    114.26    111.52    -23.64     20.46
   17.7384    113.62    111.99    -24.74     20.46
   17.7486    115.96    112.48    -22.89     20.46
   17.7587    114.32    112.98    -25.04     20.46
   17.7689    114.68    113.52    -25.22     20.46
   17.7791    115.05    114.08    -25.40     20.46
   17.7892    115.76    114.65    -25.27     20.46
   17.7994    115.90    115.26    -25.74     20.46
   17.8096    116.96    115.90    -25.31     20.46
   17.8197    116.45    116.55    -26.48     20.46
   17.8299    116.30    117.24    -27.32     20.46
   17.8401    118.69    117.96    -25.65     20.46
   17.8502    118.92    118.71    -26.17     20.46
   17.8604    119.28    119.49    -26.59     20.46
   17.8706    119.30    120.31    -27.39     20.46
   17.8807    122.30    121.15    -25.23     20.46
   17.8909    121.35    122.04    -27.07     20.46
   17.9010    122.26    122.95    -27.07     20.46
   17.9112    123.83    123.91    -26.46     20.46
   17.9214    121.86    124.91    -29.43     20.46
   17.9315    125.52    125.94    -26.79     20.46
   17.9417    125.43    127.01    -27.96     20.45
   17.9519    127.05    128.13    -27.46     20.45
   17.9620    125.30    129.28    -30.36     20.45
   17.9722    128.70    130.48    -28.16     20.45
   17.9824    128.23    131.73    -29.88     20.45
   17.9925    128.60    133.00    -30.78     20.45
   18.0027    129.99    134.34    -30.73     20.45
   18.0129    128.51    135.72    -33.59     20.45
   18.0230    130.68    137.13    -32.83     20.45
   18.0332    133.75    138.60    -31.23     20.45
   18.0434    134.54    140.12    -31.96     20.45
   18.0535    132.16    141.67    -35.89     20.45
   18.0637    138.38    143.29    -31.29     20.45
   18.0738    138.05    144.93    -33.26     20.45
   18.0840    136.73    146.64    -36.29     20.45
   18.0942    139.94    148.40    -34.84     20.45
   18.1043    139.97    150.18    -36.59     20.45
   18.1145    140.60    152.03    -37.81     20.45
   18.1247    141.39    153.93    -38.92     20.45
   18.1348    143.12    155.85    -39.11     20.45
   18.1450    143.57    157.84    -40.65     20.45
   18.1552    147.01    159.87    -39.24     20.45
   18.1653    149.33    161.93    -38.98     20.45
   18.1755    148.59    164.05    -41.83     20.45
   18.1857    150.01    166.21    -42.57     20.45
   18.1958    151.96    168.39    -42.80     20.44
   18.2060    152.26    170.62    -44.74     20.44
   18.2161    155.55    172.88    -43.70     20.44
   18.2263    159.52    175.19    -42.04     20.44
   18.2365    159.87    177.53    -44.04     20.44
   18.2466    161.63    179.88    -44.63     20.44
   18.2568    163.45    182.28    -45.21     20.44
   18.2670    165.02    184.71    -46.07     20.44
   18.2771    169.95    187.14    -43.56     20.44
   18.2873    169.74    189.61    -46.25     20.44
   18.2975    172.27    192.10    -46.20     20.44
   18.3076    176.49    194.57    -44.46     20.44
   18.3178    178.17    197.09    -45.29     20.44
   18.3280    178.71    199.61    -47.27     20.44
   18.3381    181.76    202.10    -46.72     20.44
   18.3483    184.19    204.62    -46.81     20.44
   18.3585    185.96    207.14    -47.56     20.44
   18.3686    189.02    209.62    -46.98     20.44
   18.3788    193.52    212.11    -44.96     20.44
   18.3889    195.41    214.55    -45.52     20.44
   18.3991    199.38    216.99    -43.99     20.44
   18.4093    202.79    219.41    -42.99     20.44
   18.4194    201.00    221.76    -47.14     20.44
   18.4296    208.17    224.09    -42.30     20.44
   18.4398    208.77    226.37    -43.98     20.44
   18.4499    211.36    228.58    -43.60     20.43
   18.4601    216.99    230.75    -40.14     20.43
   18.4703    219.63    232.85    -39.60     20.43
   18.4804    220.00    234.86    -41.23     20.43
   18.4906    225.34    236.80    -37.84     20.43
   18.5008    228.86    238.66    -36.18     20.43
   18.5109    229.23    240.41    -37.56     20.43
   18.5211    235.32    242.07    -33.13     20.43
   18.5312    239.60    243.62    -30.39     20.43
   18.5414    240.02    245.06    -31.42     20.43
   18.5516    245.07    246.39    -27.70     20.43
   18.5617    246.04    247.58    -27.92     20.43
   18.5719    247.41    248.66    -27.63     20.43
   18.5821    250.32    249.60    -25.66     20.43
   18.5922    253.58    250.40    -23.20     20.43
   18.6024    252.22    251.06    -25.22     20.43
   18.6126    255.40    251.58    -22.56     20.43
   18.6227    255.60    251.95    -22.73     20.43
   18.6329    259.06    252.17    -19.49     20.43
   18.6431    260.17    252.25    -18.46     20.43
   18.6532    262.35    252.17    -16.20     20.43
   18.6634    260.38    251.95    -17.95     20.43
   18.6736    264.59    251.58    -13.37     20.43
   18.6837    264.05    251.07    -13.39     20.43
   18.6939    265.33    250.40    -11.45     20.43
   18.7040    263.42    249.61    -12.57     20.42
   18.7142    263.26    248.67    -11.79     20.42
   18.7244    262.31    247.60    -11.67     20.42
   18.7345    264.23    246.41     -8.56     20.42
   18.7447    262.31    245.09     -9.15     20.42
   18.7549    260.56    243.64     -9.46     20.42
   18.7650    260.10    242.11     -8.39     20.42
   18.7752    255.78    240.45    -11.05     20.42
   18.7854    254.77    238.69    -10.30     20.42
   18.7955    252.74    236.86    -10.50     20.42
   18.8057    252.59    234.92     -8.71     20.42
   18.8159    250.50    232.91     -8.79     20.42
   18.8260    245.05    230.84    -12.17     20.42
   18.8362    244.87    228.68    -10.19     20.42
   18.8463    242.99    226.49     -9.88     20.42
   18.8565    236.96    224.22    -13.64     20.42
   18.8667    238.40    221.91     -9.88     20.42
   18.8768    236.30    219.57     -9.65     20.42
   18.8870    230.90    217.18    -12.65     20.42
   18.8972    227.52    214.75    -13.61     20.42
   18.9073    222.18    212.33    -16.52     20.42
   18.9175    222.71    209.86    -13.53     20.42
   18.9277    222.52    207.38    -11.23     20.42
   18.9378    213.66    204.91    -17.63     20.42
   18.9480    212.75    202.41    -16.04     20.42
   18.9582    210.74    199.91    -15.55     20.41
   18.9683    205.03    197.44    -18.79     20.41
   18.9785    202.68    194.96    -18.66     20.41
   18.9887    201.49    192.48    -17.37     20.41
   18.9988    200.21    190.05    -16.21     20.41
   19.0090    193.48    187.60    -20.50     20.41
   19.0191    193.60    185.21    -17.99     20.41
   19.0293    189.98    182.81    -19.21     20.41
   19.0395    187.49    180.44    -19.33     20.41
   19.0496    183.88    178.12    -20.62     20.41
   19.0598    181.85    175.81    -20.34     20.41
   19.0700    178.86    173.54    -21.06     20.41
   19.0801    178.53    171.32    -19.17     20.41
   19.0903    175.89    169.12    -19.61     20.41
   19.1005    174.49    166.96    -18.85     20.41
   19.1106    170.10    164.86    -21.14     20.41
   19.1208    167.34    162.78    -21.82     20.41
   19.1310    167.24    160.75    -19.89     20.41
   19.1411    165.02    158.78    -20.14     20.41
   19.1513    163.83    156.84    -19.38     20.41
   19.1614    160.76    154.96    -20.58     20.41
   19.1716    158.27    153.11    -21.22     20.41
   19.1818    154.26    151.31    -23.42     20.41
   19.1919    156.49    149.57    -19.46     20.41
   19.2021    153.85    147.87    -20.39     20.41
   19.2123    151.23    146.21    -21.36     20.41
   19.2224    152.73    144.62    -18.27     20.40
   19.2326    149.12    143.06    -20.32     20.40
   19.2428    148.21    141.55    -19.72     20.40
   19.2529    147.45    140.11    -19.04     20.40
   19.2631    145.54    138.70    -19.54     20.40
   19.2733    145.38    137.34    -18.33     20.40
   19.2834    145.09    136.04    -17.32     20.40
   19.2936    142.24    134.77    -18.91     20.40
   19.3038    139.46    133.55    -20.47     20.40
   19.3139    140.45    132.39    -18.32     20.40
   19.3241    140.87    131.26    -16.77     20.40
   19.3342    138.20    130.19    -18.37     20.40
   19.3444    135.55    129.15    -19.98     20.40
   19.3546    136.91    128.16    -17.62     20.40
   19.3647    136.28    127.21    -17.31     20.40
   19.3749    135.46    126.31    -17.22     20.40
   19.3851    135.93    125.44    -15.89     20.40
   19.3952    132.53    124.62    -18.47     20.40
   19.4054    135.77    123.83    -14.44     20.40
   19.4156    131.94    123.08    -17.52     20.40
   19.4257    131.68    122.38    -17.07     20.40
   19.4359    132.66    121.70    -15.42     20.40
   19.4461    130.16    121.06    -17.28     20.40
   19.4562    128.70    120.46    -18.14     20.40
   19.4664    130.10    119.89    -16.17     20.40
   19.4765    129.03    119.36    -16.71     20.39
   19.4867    126.95    118.86    -18.28     20.39
   19.4969    129.01    118.38    -15.75     20.39
   19.5070    128.11    117.94    -16.21     20.39
   19.5172    126.24    117.53    -17.67     20.39
   19.5274    127.80    117.14    -15.72     20.39
   19.5375    126.30    116.79    -16.87     20.39
   19.5477    126.05    116.46    -16.79     20.39
   19.5579    128.18    116.15    -14.35     20.39
   19.5680    125.84    115.88    -16.42     20.39
   19.5782    125.20    115.62    -16.80     20.39
   19.5884    125.04    115.39    -16.73     20.39
   19.5985    125.07    115.19    -16.49     20.39
   19.6087    124.62    115.00    -16.76     20.39
   19.6188    124.25    114.84    -16.97     20.39
   19.6290    123.11    114.70    -17.97     20.39
   19.6392    121.75    114.58    -19.20     20.39
   19.6493    123.62    114.48    -17.23     20.39
   19.6595    123.84    114.39    -16.93     20.39
   19.6697    122.63    114.33    -18.08     20.39
   19.6798    123.78    114.29    -16.88     20.39
   19.6900    123.57    114.26    -17.07     20.39
   19.7002    122.70    114.25    -17.93     20.39
   19.7103    122.62    114.26    -18.02     20.39
   19.7205    120.87    114.28    -19.79     20.39
   19.7307    122.79    114.32    -17.91     20.38
   19.7408    121.35    114.38    -19.41     20.38
   19.7510    121.20    114.45    -19.63     20.38
   19.7612    121.15    114.54    -19.76     20.38
   19.7713    121.82    114.64    -19.19     20.38
   19.7815    122.11    114.75    -19.02     20.38
   19.7916    121.83    114.88    -19.43     20.38
   19.8018    120.48    115.02    -20.92     20.38
   19.8120    121.90    115.18    -19.66     20.38
   19.8221    121.38    115.35    -20.35     20.38
   19.8323    121.83    115.53    -20.08     20.38
   19.8425    122.03    115.73    -20.08     20.38
   19.8526    120.23    115.94    -22.08     20.38
   19.8628    120.60    116.16    -21.93     20.38
   19.8730    122.33    116.39    -20.44     20.38
   19.8831    120.13    116.63    -22.88     20.38
   19.8933    122.29    116.89    -20.98     20.38
   19.9035    120.10    117.16    -23.43     20.38
   19.9136    119.10    117.43    -24.71     20.38
   19.9238    122.48    117.72    -21.62     20.38
   19.9339    121.30    118.02    -23.10     20.38
   19.9441    122.37    118.33    -22.34     20.38
   19.9543    121.45    118.65    -23.58     20.38
   19.9644    122.35    118.98    -23.01     20.38
   19.9746    120.93    119.32    -24.77     20.38
   19.9848    121.38    119.67    -24.67     20.37
   19.9949    123.24    120.03    -23.17     20.37
   20.0051    122.49    120.40    -24.29     20.37
   20.0153    122.13    120.78    -25.03     20.37
   20.0254    122.98    121.16    -24.56     20.37
   20.0356    123.73    121.56    -24.20     20.37
   20.0458    123.51    121.96    -24.83     20.37
   20.0559    123.84    122.37    -24.91     20.37
   20.0661    123.23    122.79    -25.93     20.37
   20.0763    125.08    123.21    -24.51     20.37
   20.0864    123.84    123.64    -26.18     20.37
   20.0966    124.31    124.08    -26.15     20.37
   20.1067    125.95    124.52    -24.95     20.37
   20.1169    127.44    124.97    -23.91     20.37
   20.1271    125.60    125.43    -26.21     20.37
   20.1372    127.70    125.88    -24.56     20.37
   20.1474    125.31    126.35    -27.42     20.37
   20.1576    126.93    126.82    -26.27     20.37
   20.1677    127.48    127.29    -26.19     20.37
   20.1779    126.52    127.77    -27.62     20.37
   20.1881    125.91    128.25    -28.71     20.37
   20.1982    127.25    128.72    -27.85     20.37
   20.2084    128.56    129.21    -27.02     20.37
   20.2186    128.29    129.69    -27.78     20.37
   20.2287    129.52    130.17    -27.03     20.37
   20.2389    128.39    130.66    -28.64     20.36
   20.2490    128.66    131.13    -28.85     20.36
   20.2592    129.63    131.62    -28.37     20.36
   20.2694    131.69    132.10    -26.79     20.36
   20.2795    129.80    132.57    -29.15     20.36
   20.2897    132.46    133.05    -26.96     20.36
   20.2999    131.44    133.52    -28.45     20.36
   20.3100    132.35    133.98    -28.01     20.36
   20.3202    132.74    134.44    -28.08     20.36
   20.3304    134.18    134.89    -27.09     20.36
   20.3405    133.52    135.33    -28.19     20.36
   20.3507    135.44    135.77    -26.71     20.36
   20.3609    134.66    136.20    -27.92     20.36
   20.3710    134.56    136.62    -28.43     20.36
   20.3812    135.05    137.03    -28.35     20.36
   20.3914    137.85    137.42    -25.95     20.36
   20.4015    136.38    137.80    -27.80     20.36
   20.4117    138.81    138.18    -25.75     20.36
   20.4218    138.01    138.53    -26.90     20.36
   20.4320    136.68    138.88    -28.57     20.36
   20.4422    138.75    139.20    -26.83     20.36
   20.4523    138.81    139.51    -27.08     20.36
   20.4625    138.96    139.81    -27.22     20.36
   20.4727    137.91    140.08    -28.55     20.36
   20.4828    138.45    140.34    -28.26     20.36
   20.4930    139.99    140.57    -26.96     20.35
   20.5032    141.92    140.79    -25.25     20.35
   20.5133    141.43    140.98    -25.93     20.35
   20.5235    139.29    141.16    -28.25     20.35
   20.5337    141.81    141.31    -25.88     20.35
   20.5438    144.23    141.44    -23.58     20.35
   20.5540    140.87    141.54    -27.05     20.35
   20.5641    141.98    141.62    -26.02     20.35
   20.5743    141.05    141.68    -27.01     20.35
   20.5845    142.90    141.72    -25.19     20.35
   20.5946    142.93    141.73    -25.17     20.35
   20.6048    143.37    141.71    -24.72     20.35
   20.6150    143.47    141.67    -24.58     20.35
   20.6251    142.91    141.61    -25.08     20.35
   20.6353    145.88    141.52    -22.02     20.35
   20.6455    141.74    141.41    -26.05     20.35
   20.6556    143.39    141.27    -24.26     20.35
   20.6658    142.73    141.11    -24.76     20.35
   20.6760    141.88    140.93    -25.43     20.35
   20.6861    144.66    140.73    -22.44     20.35
   20.6963    141.52    140.50    -25.36     20.35
   20.7065    139.95    140.25    -26.68     20.35
   20.7166    142.08    139.98    -24.28     20.35
   20.7268    141.92    139.69    -24.15     20.35
   20.7369    141.17    139.38    -24.59     20.35
   20.7471    140.12    139.05    -25.31     20.34
   20.7573    141.90    138.71    -23.18     20.34
   20.7674    138.21    138.35    -26.51     20.34
   20.7776    139.66    137.96    -24.68     20.34
   20.7878    138.29    137.57    -25.66     20.34
   20.7979    138.26    137.16    -25.28     20.34
   20.8081    138.03    136.73    -25.08     20.34
   20.8183    139.74    136.30    -22.93     20.34
   20.8284    136.05    135.85    -26.18     20.34
   20.8386    137.85    135.39    -23.92     20.34
   20.8488    136.39    134.92    -24.91     20.34
   20.8589    135.55    134.44    -25.27     20.34
   20.8691    133.71    133.95    -26.62     20.34
   20.8792    135.09    133.46    -24.75     20.34
   20.8894    132.79    132.96    -26.55     20.34
   20.8996    133.49    132.45    -25.34     20.34
   20.9097    131.47    131.94    -26.85     20.34
   20.9199    130.22    131.42    -27.58     20.34
   20.9301    131.18    130.90    -26.10     20.34
   20.9402    129.86    130.38    -26.90     20.34
   20.9504    128.45    129.85    -27.78     20.34
   20.9606    128.60    129.33    -27.10     20.34
   20.9707    128.24    128.80    -26.94     20.34
   20.9809    127.53    128.28    -27.12     20.34
   20.9911    127.55    127.75    -26.58     20.34
   21.0012    127.60    127.23    -26.01     20.34
   21.0114    123.86    126.70    -29.22     20.33
   21.0216    125.27    126.18    -27.29     20.33
   21.0317    125.15    125.67    -26.90     20.33
   21.0419    122.88    125.16    -28.66     20.33
   21.0520    123.05    124.66    -27.99     20.33
   21.0622    122.55    124.15    -27.98     20.33
   21.0724    121.80    123.66    -28.23     20.33
   21.0825    120.53    123.17    -29.02     20.33
   21.0927    120.51    122.69    -28.55     20.33
   21.1029    118.27    122.21    -30.32     20.33
   21.1130    118.57    121.74    -29.55     20.33
   21.1232    119.68    121.28    -27.98     20.33
   21.1334    117.73    120.83    -29.48     20.33
   21.1435    117.32    120.39    -29.45     20.33
   21.1537    119.56    119.96    -26.78     20.33
   21.1639    116.58    119.53    -29.33     20.33
   21.1740    118.32    119.13    -27.18     20.33
   21.1842    114.73    118.72    -30.37     20.33
   21.1943    115.18    118.33    -29.53     20.33
   21.2045    114.69    117.95    -29.64     20.33
   21.2147    113.87    117.59    -30.09     20.33
   21.2248    114.59    117.23    -29.02     20.33
   21.2350    112.92    116.89    -30.35     20.33
   21.2452    112.21    116.56    -30.72     20.33
   21.2553    111.26    116.24    -31.36     20.33
   21.2655    113.30    115.94    -29.02     20.32
   21.2757    111.03    115.65    -30.99     20.32
   21.2858    111.13    115.37    -30.62     20.32
   21.2960    111.35    115.11    -30.14     20.32
   21.3062    112.49    114.86    -28.75     20.32
   21.3163    110.02    114.63    -30.99     20.32
   21.3265    111.57    114.41    -29.22     20.32
   21.3366    111.16    114.21    -29.43     20.32
   21.3468    110.00    114.03    -30.40     20.32
   21.3570    110.71    113.85    -29.52     20.32
   21.3671    111.13    113.70    -28.95     20.32
   21.3773    108.66    113.56    -31.28     20.32
   21.3875    109.32    113.44    -30.50     20.32
   21.3976    109.70    113.34    -30.01     20.32
   21.4078    108.38    113.25    -31.24     20.32
   21.4180    108.01    113.18    -31.54     20.32
   21.4281    108.74    113.12    -30.76     20.32
   21.4383    108.36    113.09    -31.10     20.32
   21.4485    109.12    113.07    -30.32     20.32
   21.4586    108.87    113.07    -30.57     20.32
   21.4688    107.73    113.08    -31.73     20.32
   21.4790    109.02    113.12    -30.48     20.32
   21.4891    108.65    113.17    -30.90     20.32
   21.4993    108.02    113.24    -31.60     20.32
   21.5094    107.66    113.33    -32.05     20.32
   21.5196    109.92    113.44    -29.90     20.31
   21.5298    107.02    113.57    -32.93     20.31
   21.5399    108.95    113.72    -31.14     20.31
   21.5501    107.45    113.88    -32.81     20.31
   21.5603    108.20    114.07    -32.25     20.31
   21.5704    108.57    114.27    -32.08     20.31
   21.5806    108.81    114.50    -32.06     20.31
   21.5908    107.53    114.74    -33.59     20.31
   21.6009    109.61    115.00    -31.77     20.31
   21.6111    109.70    115.28    -31.96     20.31
   21.6213    108.62    115.58    -33.34     20.31
   21.6314    111.02    115.90    -31.26     20.31
   21.6416    109.93    116.24    -32.69     20.31
   21.6517    109.76    116.60    -33.22     20.31
   21.6619    111.65    116.98    -31.71     20.31
   21.6721    111.77    117.38    -31.99     20.31
   21.6822    112.92    117.80    -31.25     20.31
   21.6924    110.55    118.23    -34.06     20.31
   21.7026    111.58    118.69    -33.49     20.31
   21.7127    111.13    119.16    -34.41     20.31
   21.7229    112.95    119.66    -33.09     20.31
   21.7331    112.40    120.17    -34.15     20.31
   21.7432    112.62    120.70    -34.46     20.31
   21.7534    115.59    121.25    -32.04     20.31
   21.7636    114.68    121.83    -33.52     20.31
   21.7737    114.77    122.41    -34.02     20.30
   21.7839    113.82    123.01    -35.57     20.30
   21.7941    116.76    123.64    -33.26     20.30
   21.8042    114.77    124.27    -35.88     20.30
   21.8144    116.55    124.93    -34.76     20.30
   21.8245    119.32    125.60    -32.66     20.30
   21.8347    118.15    126.29    -34.52     20.30
   21.8449    119.43    127.00    -33.95     20.30
   21.8550    120.32    127.72    -33.78     20.30
   21.8652    120.45    128.46    -34.39     20.30
   21.8754    121.97    129.21    -33.62     20.30
   21.8855    123.05    129.97    -33.30     20.30
   21.8957    121.03    130.75    -36.10     20.30
   21.9059    123.65    131.55    -34.28     20.30
   21.9160    124.95    132.35    -33.78     20.30
   21.9262    122.93    133.17    -36.62     20.30
   21.9364    125.87    134.00    -34.51     20.30
   21.9465    125.91    134.83    -35.30     20.30
   21.9567    125.62    135.69    -36.44     20.30
   21.9668    127.79    136.54    -35.13     20.30
   21.9770    128.89    137.41    -34.90     20.30
   21.9872    129.70    138.29    -34.97     20.30
   21.9973    129.22    139.16    -36.32     20.30
   22.0075    131.57    140.06    -34.86     20.30
   22.0177    132.11    140.95    -35.22     20.30
   22.0278    131.55    141.84    -36.67     20.29
   22.0380    134.21    142.75    -34.91     20.29
   22.0482    133.66    143.65    -36.37     20.29
   22.0583    136.04    144.55    -34.89     20.29
   22.0685    137.98    145.46    -33.86     20.29
   22.0787    134.93    146.36    -37.81     20.29
   22.0888    137.64    147.26    -36.00     20.29
   22.0990    140.15    148.16    -34.39     20.29
   22.1092    138.26    149.05    -37.17     20.29
   22.1193    141.15    149.93    -35.16     20.29
   22.1295    143.61    150.81    -33.58     20.29
   22.1396    142.77    151.68    -35.29     20.29
   22.1498    144.09    152.54    -34.83     20.29
   22.1600    145.30    153.39    -34.47     20.29
   22.1701    146.63    154.22    -33.97     20.29
   22.1803    147.18    155.04    -34.24     20.29
   22.1905    149.40    155.85    -32.83     20.29
   22.2006    148.58    156.63    -34.43     20.29
   22.2108    150.59    157.40    -33.18     20.29
   22.2210    151.31    158.14    -33.21     20.29
   22.2311    152.07    158.86    -33.17     20.29
   22.2413    154.62    159.56    -31.32     20.29
   22.2515    152.99    160.23    -33.62     20.29
   22.2616    154.74    160.87    -32.51     20.29
   22.2718    155.34    161.48    -32.52     20.29
   22.2819    155.99    162.06    -32.45     20.28
   22.2921    157.27    162.61    -31.72     20.28
   22.3023    159.39    163.13    -30.12     20.28
   22.3124    160.67    163.61    -29.32     20.28
   22.3226    160.41    164.05    -30.02     20.28
   22.3328    161.66    164.45    -29.17     20.28
   22.3429    161.96    164.82    -29.23     20.28
   22.3531    161.70    165.14    -29.82     20.28
   22.3633    165.29    165.42    -26.51     20.28
   22.3734    164.57    165.65    -27.46     20.28
   22.3836    162.15    165.84    -30.07     20.28
   22.3938    165.88    165.99    -26.49     20.28
   22.4039    164.37    166.09    -28.10     20.28
   22.4141    164.54    166.14    -27.98     20.28
   22.4243    166.95    166.15    -25.58     20.28
   22.4344    165.58    166.11    -26.90     20.28
   22.4446    165.31    166.02    -27.08     20.28
   22.4547    167.65    165.88    -24.61     20.28
   22.4649    168.18    165.69    -23.89     20.28
   22.4751    167.10    165.46    -24.74     20.28
   22.4852    168.85    165.18    -22.71     20.28
   22.4954    168.16    164.85    -23.07     20.28
   22.5056    165.72    164.48    -25.14     20.28
   22.5157    166.80    164.06    -23.64     20.28
   22.5259    166.76    163.60    -23.22     20.28
   22.5361    166.27    163.09    -23.20     20.27
   22.5462    166.61    162.55    -22.32     20.27
   22.5564    165.86    161.96    -22.48     20.27
   22.5666    165.70    161.33    -22.00     20.27
   22.5767    165.10    160.66    -21.94     20.27
   22.5869    165.79    159.95    -20.54     20.27
   22.5970    164.77    159.22    -20.83     20.27
   22.6072    165.73    158.44    -19.09     20.27
   22.6174    164.21    157.63    -19.80     20.27
   22.6275    160.04    156.80    -23.13     20.27
   22.6377    162.68    155.92    -19.62     20.27
   22.6479    162.16    155.03    -19.24     20.27
   22.6580    157.00    154.11    -23.49     20.27
   22.6682    159.38    153.16    -20.16     20.27
   22.6784    160.71    152.18    -17.85     20.27
   22.6885    158.01    151.20    -19.57     20.27
   22.6987    157.64    150.19    -18.92     20.27
   22.7089    158.26    149.15    -17.27     20.27
   22.7190    154.61    148.11    -19.88     20.27
   22.7292    155.97    147.05    -17.46     20.27
   22.7394    153.21    145.97    -19.14     20.27
   22.7495    152.28    144.89    -18.99     20.27
   22.7597    153.38    143.79    -16.79     20.27
   22.7698    150.95    142.69    -18.12     20.27
   22.7800    149.43    141.58    -18.52     20.27
   22.7902    150.22    140.45    -16.61     20.26
   22.8003    147.21    139.33    -18.50     20.26
   22.8105    147.10    138.20    -17.48     20.26
   22.8207    145.58    137.06    -17.86     20.26
   22.8308    145.50    135.94    -16.81     20.26
   22.8410    144.42    134.80    -16.76     20.26
   22.8512    143.12    133.66    -16.92     20.26
   22.8613    143.00    132.53    -15.91     20.26
   22.8715    139.74    131.40    -18.04     20.26
   22.8817    140.04    130.27    -16.61     20.26
   22.8918    138.21    129.15    -17.32     20.26
   22.9020    136.76    128.03    -17.65     20.26
   22.9121    134.75    126.92    -18.55     20.26
   22.9223    134.79    125.81    -17.40     20.26
   22.9325    134.43    124.71    -16.66     20.26
   22.9426    133.70    123.63    -16.31     20.26
   22.9528    133.60    122.54    -15.32     20.26
   22.9630    131.48    121.47    -16.36     20.26
   22.9731    130.63    120.41    -16.16     20.26
   22.9833    128.86    119.36    -16.87     20.26
   22.9935    128.37    118.31    -16.32     20.26
   23.0036    127.48    117.29    -16.19     20.26
   23.0138    126.45    116.27    -16.19     20.26
   23.0240    124.95    115.26    -16.68     20.26
   23.0341    124.84    114.27    -15.81     20.26
   23.0443    123.43    113.29    -16.23     20.26
   23.0545    120.38    112.32    -18.31     20.25
   23.0646    118.48    111.37    -19.27     20.25
   23.0748    120.26    110.43    -16.54     20.25
   23.0849    118.26    109.51    -17.62     20.25
   23.0951    118.82    108.59    -16.15     20.25
   23.1053    117.21    107.69    -16.86     20.25
   23.1154    116.36    106.82    -16.84     20.25
   23.1256    115.26    105.95    -17.07     20.25
   23.1358    114.45    105.09    -17.02     20.25
   23.1459    111.09    104.26    -19.55     20.25
   23.1561    113.43    103.44    -16.38     20.25
   23.1663    112.12    102.63    -16.89     20.25
   23.1764    110.63    101.84    -17.59     20.25
   23.1866    109.24    101.06    -18.20     20.25
   23.1968    110.14    100.30    -16.54     20.25
   23.2069    108.06     99.56    -17.88     20.25
   23.2171    107.53     98.82    -17.67     20.25
   23.2272    105.58     98.11    -18.91     20.25
   23.2374    106.06     97.41    -17.73     20.25
   23.2476    105.22     96.72    -17.88     20.25
   23.2577    105.48     96.05    -16.95     20.25
   23.2679    103.52     95.39    -18.25     20.25
   23.2781    103.68     94.75    -17.45     20.25
   23.2882    101.80     94.13    -18.70     20.25
   23.2984    101.52     93.51    -18.37     20.25
   23.3086    101.52     92.91    -17.77     20.24
   23.3187    100.26     92.32    -18.44     20.24
   23.3289     99.48     91.75    -18.65     20.24
   23.3391     97.65     91.19    -19.92     20.24
   23.3492     97.57     90.65    -19.45     20.24
   23.3594     97.30     90.11    -19.19     20.24
   23.3695     96.94     89.59    -19.03     20.24
   23.3797     95.73     89.08    -19.73     20.24
   23.3899     95.29     88.59    -19.67     20.24
   23.4000     95.63     88.11    -18.85     20.24
   23.4102     94.84     87.63    -19.17     20.24
   23.4204     92.70     87.17    -20.85     20.24
   23.4305     92.03     86.72    -21.07     20.24
   23.4407     92.40     86.28    -20.26     20.24
   23.4509     91.76     85.86    -20.47     20.24
   23.4610     89.73     85.44    -22.09     20.24
   23.4712     89.80     85.03    -21.61     20.24
   23.4814     88.84     84.64    -22.17     20.24
   23.4915     88.07     84.25    -22.56     20.24
   23.5017     87.64     83.87    -22.61     20.24
   23.5119     88.37     83.50    -21.51     20.24
   23.5220     86.87     83.14    -22.65     20.24
   23.5322     87.07     82.79    -22.10     20.24
   23.5423     85.73     82.45    -23.10     20.24
   23.5525     84.83     82.12    -23.67     20.24
   23.5627     86.21     81.79    -21.96     20.23
   23.5728     83.85     81.47    -24.00     20.23
   23.5830     83.65     81.16    -23.89     20.23
   23.5932     83.86     80.86    -23.37     20.23
   23.6033     81.84     80.56    -25.10     20.23
   23.6135     83.49     80.27    -23.16     20.23
   23.6237     82.34     79.99    -24.02     20.23
   23.6338     81.30     79.71    -24.79     20.23
   23.6440     81.58     79.44    -24.24     20.23
   23.6542     80.73     79.17    -24.82     20.23
   23.6643     79.93     78.91    -25.36     20.23
   23.6745     80.52     78.66    -24.52     20.23
   23.6846     79.64     78.41    -25.15     20.23
   23.6948     77.52     78.17    -27.03     20.23
   23.7050     78.87     77.93    -25.44     20.23
   23.7151     78.72     77.70    -25.35     20.23
   23.7253     77.88     77.47    -25.96     20.23
   23.7355     77.35     77.24    -26.27     20.23
   23.7456     76.46     77.02    -26.94     20.23
   23.7558     76.88     76.80    -26.30     20.23
   23.7660     75.28     76.59    -27.69     20.23
   23.7761     76.46     76.38    -26.30     20.23
   23.7863     74.95     76.18    -27.60     20.23
   23.7965     75.65     75.97    -26.70     20.23
   23.8066     74.12     75.77    -28.03     20.23
   23.8168     74.74     75.58    -27.22     20.22
   23.8270     74.65     75.39    -27.11     20.22
   23.8371     72.68     75.20    -28.90     20.22
   23.8473     73.66     75.01    -27.73     20.22
   23.8574     74.59     74.83    -26.61     20.22
   23.8676     73.09     74.64    -27.93     20.22
   23.8778     72.48     74.46    -28.36     20.22
   23.8879     71.75     74.29    -28.92     20.22
   23.8981     71.52     74.11    -28.97     20.22
   23.9083     73.04     73.94    -27.28     20.22
   23.9184     70.55     73.77    -29.60     20.22
   23.9286     71.27     73.60    -28.71     20.22
   23.9388     71.84     73.44    -27.98     20.22
   23.9489     70.58     73.27    -29.07     20.22
   23.9591     71.04     73.11    -28.45     20.22
   23.9693     69.40     72.95    -29.93     20.22
   23.9794     70.84     72.79    -28.33     20.22
   23.9896     70.18     72.63    -28.83     20.22
   23.9997     69.37     72.48    -29.49     20.22
   24.0099     68.68     72.32    -30.02     20.22
   24.0201     68.11     72.17    -30.44     20.22
   24.0302     68.95     72.02    -29.45     20.22
   24.0404     67.29     71.87    -30.96     20.22
   24.0506     67.87     71.72    -30.23     20.22
   24.0607     67.23     71.57    -30.72     20.22
   24.0709     68.45     71.42    -29.35     20.21
   24.0811     67.96     71.28    -29.70     20.21
   24.0912     66.30     71.13    -31.21     20.21
   24.1014     67.23     70.99    -30.14     20.21
   24.1116     67.16     70.85    -30.07     20.21
   24.1217     65.06     70.71    -32.02     20.21
   24.1319     66.78     70.57    -30.16     20.21
   24.1421     65.67     70.42    -31.13     20.21
   24.1522     64.66     70.29    -32.00     20.21
   24.1624     64.82     70.15    -31.71     20.21
   24.1725     66.37     70.01    -30.02     20.21
   24.1827     64.34     69.87    -31.91     20.21
   24.1929     65.01     69.74    -31.11     20.21
   24.2030     65.30     69.60    -30.68     20.21
   24.2132     64.82     69.47    -31.03     20.21
   24.2234     64.62     69.34    -31.09     20.21
   24.2335     64.38     69.20    -31.20     20.21
   24.2437     63.76     69.07    -31.69     20.21
   24.2539     65.41     68.94    -29.91     20.21
   24.2640     63.99     68.81    -31.20     20.21
   24.2742     64.39     68.68    -30.66     20.21
   24.2844     63.10     68.55    -31.82     20.21
   24.2945     62.99     68.42    -31.81     20.21
   24.3047     62.66     68.29    -32.01     20.21
   24.3148     63.30     68.16    -31.24     20.21
   24.3250     63.27     68.03    -31.14     20.20
   24.3352     62.35     67.91    -31.93     20.20
   24.3453     63.52     67.78    -30.64     20.20
   24.3555     62.17     67.65    -31.86     20.20
   24.3657     62.71     67.53    -31.19     20.20
   24.3758     61.70     67.40    -32.08     20.20
   24.3860     62.61     67.28    -31.04     20.20
   24.3962     62.45     67.15    -31.08     20.20
   24.4063     61.95     67.03    -31.46     20.20
   24.4165     60.41     66.91    -32.87     20.20
   24.4267     60.82     66.78    -32.34     20.20
   24.4368     61.91     66.66    -31.13     20.20
   24.4470     60.82     66.54    -32.10     20.20
   24.4572     60.52     66.42    -32.27     20.20
   24.4673     61.72     66.30    -30.95     20.20
   24.4775     60.99     66.17    -31.56     20.20
   24.4876     62.17     66.05    -30.26     20.20
   24.4978     61.18     65.93    -31.13     20.20
   24.5080     60.79     65.81    -31.40     20.20
   24.5181     60.87     65.69    -31.20     20.20
   24.5283     59.51     65.58    -32.44     20.20
   24.5385     59.23     65.46    -32.60     20.20
   24.5486     59.77     65.34    -31.95     20.20
   24.5588     60.26     65.22    -31.34     20.20
   24.5690     59.41     65.10    -32.07     20.20
   24.5791     60.78     64.99    -30.58     20.19
   24.5893     59.10     64.87    -32.15     20.19
   24.5995     58.72     64.75    -32.41     20.19
   24.6096     58.80     64.64    -32.22     20.19
   24.6198     58.73     64.52    -32.17     20.19
   24.6299     59.30     64.41    -31.48     20.19
   24.6401     59.15     64.29    -31.52     20.19
   24.6503     58.74     64.18    -31.81     20.19
   24.6604     58.07     64.06    -32.37     20.19
   24.6706     58.56     63.95    -31.77     20.19
   24.6808     58.26     63.83    -31.95     20.19
   24.6909     57.76     63.72    -32.34     20.19
   24.7011     57.84     63.61    -32.14     20.19
   24.7113     58.00     63.49    -31.87     20.19
   24.7214     58.72     63.38    -31.04     20.19
   24.7316     58.77     63.27    -30.88     20.19
   24.7418     58.07     63.16    -31.46     20.19
   24.7519     57.15     63.05    -32.27     20.19
   24.7621     58.06     62.93    -31.25     20.19
   24.7723     58.59     62.82    -30.61     20.19
   24.7824     58.39     62.71    -30.70     20.19
   24.7926     58.71     62.60    -30.27     20.19
   24.8027     56.71     62.49    -32.16     20.19
   24.8129     57.52     62.38    -31.24     20.19
   24.8231     56.81     62.27    -31.84     20.19
   24.8332     57.24     62.16    -31.30     20.19
   24.8434     58.26     62.05    -30.17     20.18
   24.8536     56.95     61.95    -31.37     20.18
   24.8637     56.91     61.84    -31.31     20.18
   24.8739     56.48     61.73    -31.63     20.18
   24.8841     55.85     61.62    -32.15     20.18
   24.8942     57.05     61.51    -30.84     20.18
   24.9044     56.40     61.41    -31.38     20.18
   24.9146     56.07     61.30    -31.61     20.18
   24.9247     56.97     61.19    -30.60     20.18
   24.9349     56.67     61.09    -30.79     20.18
   24.9450     56.23     60.98    -31.13     20.18
   24.9552     55.54     60.88    -31.71     20.18
   24.9654     55.41     60.77    -31.74     20.18
   24.9755     56.21     60.66    -30.83     20.18
   24.9857     55.31     60.56    -31.63     20.18
   24.9959     55.90     60.45    -30.93     20.18
   25.0060     56.26     60.35    -30.47     20.18
   25.0162     55.70     60.25    -30.92     20.18
   25.0264     56.30     60.14    -30.22     20.18
   25.0365     56.90     60.04    -29.52     20.18
   25.0467     55.42     59.93    -30.89     20.18
   25.0569     55.59     59.83    -30.62     20.18
   25.0670     56.15     59.73    -29.96     20.18
   25.0772     54.82     59.63    -31.18     20.18
   25.0874     54.63     59.52    -31.27     20.18
   25.0975     56.06     59.42    -29.74     20.17
   25.1077     56.18     59.32    -29.52     20.17
   25.1178     55.29     59.22    -30.31     20.17
   25.1280     55.08     59.12    -30.41     20.17
   25.1382     55.68     59.01    -29.71     20.17
   25.1483     55.08     58.91    -30.21     20.17
   25.1585     55.95     58.81    -29.24     20.17
   25.1687     54.90     58.71    -30.19     20.17
   25.1788     54.46     58.61    -30.53     20.17
   25.1890     54.67     58.51    -30.22     20.17
   25.1992     54.12     58.41    -30.67     20.17
   25.2093     54.20     58.31    -30.49     20.17
   25.2195     54.96     58.21    -29.63     20.17
   25.2297     54.35     58.12    -30.14     20.17
   25.2398     54.27     58.02    -30.13     20.17
   25.2500     53.99     57.92    -30.31     20.17
   25.2601     54.64     57.82    -29.56     20.17
   25.2703     55.20     57.72    -28.90     20.17
   25.2805     54.24     57.63    -29.76     20.17
   25.2906     53.97     57.53    -29.94     20.17
   25.3008     54.55     57.43    -29.26     20.17
   25.3110     53.65     57.33    -30.06     20.17
   25.3211     53.48     57.24    -30.14     20.17
   25.3313     54.29     57.14    -29.23     20.17
   25.3415     54.34     57.05    -29.08     20.17
   25.3516     54.26     56.95    -29.07     20.16
   25.3618     54.45     56.85    -28.78     20.16
   25.3720     55.15     56.76    -27.99     20.16
   25.3821     53.03     56.66    -30.01     20.16
   25.3923     55.10     56.57    -27.85     20.16
   25.4024     52.35     56.48    -30.50     20.16
   25.4126     53.65     56.38    -29.11     20.16
   25.4228     53.59     56.29    -29.07     20.16
   25.4329     54.16     56.19    -28.41     20.16
   25.4431     53.32     56.10    -29.16     20.16
   25.4533     53.88     56.01    -28.50     20.16
   25.4634     53.01     55.91    -29.28     20.16
   25.4736     54.15     55.82    -28.05     20.16
   25.4838     53.34     55.73    -28.77     20.16
   25.4939     52.79     55.64    -29.22     20.16
   25.5041     53.41     55.54    -28.51     20.16
   25.5143     54.99     55.45    -26.84     20.16
   25.5244     53.34     55.36    -28.40     20.16
   25.5346     53.74     55.27    -27.91     20.16
   25.5448     53.50     55.18    -28.06     20.16
   25.5549     52.04     55.09    -29.43     20.16
   25.5651     53.77     55.00    -27.60     20.16
   25.5752     52.99     54.91    -28.29     20.16
   25.5854     53.48     54.82    -27.71     20.16
   25.5956     52.95     54.73    -28.15     20.16
   25.6057     53.26     54.64    -27.76     20.15
   25.6159     53.15     54.55    -27.78     20.15
   25.6261     52.51     54.46    -28.33     20.15
   25.6362     53.05     54.37    -27.70     20.15
   25.6464     52.91     54.28    -27.75     20.15
   25.6566     52.18     54.19    -28.39     20.15
   25.6667     53.98     54.11    -26.50     20.15
   25.6769     52.73     54.02    -27.67     20.15
   25.6871     52.27     53.93    -28.04     20.15
   25.6972     52.49     53.84    -27.73     20.15
   25.7074     52.62     53.76    -27.51     20.15
   25.7175     52.38     53.67    -27.67     20.15
   25.7277     52.11     53.58    -27.85     20.15
   25.7379     53.60     53.50    -26.28     20.15
   25.7480     52.71     53.41    -27.08     20.15
   25.7582     52.07     53.33    -27.63     20.15
   25.7684     52.85     53.24    -26.77     20.15
   25.7785     51.74     53.16    -27.79     20.15
   25.7887     51.18     53.07    -28.27     20.15
   25.7989     52.31     52.99    -27.05     20.15
   25.8090     52.40     52.90    -26.88     20.15
   25.8192     51.95     52.82    -27.25     20.15
   25.8294     52.60     52.73    -26.51     20.15
   25.8395     51.57     52.65    -27.46     20.15
   25.8497     51.82     52.57    -27.13     20.15
   25.8599     50.83     52.48    -28.03     20.14
   25.8700     51.16     52.40    -27.62     20.14
   25.8802     50.69     52.32    -28.01     20.14
   25.8903     50.66     52.24    -27.96     20.14
   25.9005     50.86     52.16    -27.67     20.14
   25.9107     51.37     52.07    -27.08     20.14
   25.9208     51.28     51.99    -27.09     20.14
   25.9310     51.26     51.91    -27.03     20.14
   25.9412     50.91     51.83    -27.30     20.14
   25.9513     51.48     51.75    -26.65     20.14
   25.9615     50.77     51.67    -27.28     20.14
   25.9717     50.14     51.59    -27.83     20.14
   25.9818     50.80     51.51    -27.09     20.14
   25.9920     50.77     51.43    -27.04     20.14
   26.0022     50.66     51.35    -27.07     20.14
   26.0123     50.58     51.27    -27.07     20.14
   26.0225     51.15     51.20    -26.42     20.14
   26.0326     51.13     51.12    -26.37     20.14
   26.0428     50.49     51.04    -26.93     20.14
   26.0530     50.65     50.96    -26.69     20.14
   26.0631     50.16     50.89    -27.10     20.14
   26.0733     49.82     50.81    -27.37     20.14
   26.0835     51.51     50.73    -25.60     20.14
   26.0936     50.49     50.66    -26.54     20.14
   26.1038     50.35     50.58    -26.61     20.14
   26.1140     49.34     50.50    -27.54     20.13
   26.1241     49.87     50.43    -26.94     20.13
   26.1343     49.24     50.35    -27.49     20.13
   26.1445     50.98     50.28    -25.68     20.13
   26.1546     50.18     50.20    -26.40     20.13
   26.1648     50.32     50.13    -26.19     20.13
   26.1750     49.96     50.05    -26.47     20.13
   26.1851     50.23     49.98    -26.13     20.13
   26.1953     50.13     49.91    -26.16     20.13
   26.2054     48.80     49.84    -27.41     20.13
   26.2156     49.57     49.76    -26.57     20.13
   26.2258     49.10     49.69    -26.97     20.13
   26.2359     50.02     49.62    -25.98     20.13
   26.2461     50.21     49.55    -25.71     20.13
   26.2563     49.86     49.47    -25.99     20.13
   26.2664     48.84     49.40    -26.94     20.13
   26.2766     49.45     49.33    -26.26     20.13
   26.2868     48.26     49.26    -27.38     20.13
   26.2969     49.70     49.19    -25.87     20.13
   26.3071     48.92     49.12    -26.58     20.13
   26.3173     48.30     49.05    -27.13     20.13
   26.3274     48.37     48.98    -26.99     20.13
   26.3376     47.93     48.92    -27.36     20.13
   26.3477     48.48     48.85    -26.75     20.13
   26.3579     49.51     48.78    -25.65     20.13
   26.3681     49.28     48.71    -25.81     20.12
   26.3782     48.38     48.64    -26.64     20.12
   26.3884     47.94     48.58    -27.01     20.12
   26.3986     48.13     48.51    -26.76     20.12
   26.4087     48.41     48.44    -26.41     20.12
   26.4189     48.09     48.38    -26.67     20.12
   26.4291     48.12     48.31    -26.57     20.12
   26.4392     47.55     48.25    -27.08     20.12
   26.4494     48.58     48.18    -25.98     20.12
   26.4596     47.32     48.12    -27.18     20.12
   26.4697     47.56     48.05    -26.87     20.12
   26.4799     48.55     47.99    -25.82     20.12
   26.4901     48.07     47.93    -26.23     20.12
   26.5002     48.02     47.86    -26.22     20.12
   26.5104     48.34     47.80    -25.84     20.12
   26.5205     48.43     47.74    -25.69     20.12
   26.5307     48.34     47.68    -25.72     20.12
   26.5409     48.38     47.62    -25.61     20.12
   26.5510     48.00     47.56    -25.93     20.12
   26.5612     47.95     47.49    -25.92     20.12
   26.5714     46.76     47.43    -27.05     20.12
   26.5815     47.29     47.38    -26.46     20.12
   26.5917     46.85     47.32    -26.84     20.12
   26.6019     48.42     47.26    -25.21     20.12
   26.6120     47.44     47.20    -26.14     20.12
   26.6222     47.10     47.14    -26.42     20.12
   26.6324     47.32     47.08    -26.14     20.11
   26.6425     46.09     47.03    -27.31     20.11
   26.6527     46.82     46.97    -26.53     20.11
   26.6628     48.28     46.91    -25.01     20.11
   26.6730     48.12     46.86    -25.12     20.11
   26.6832     46.87     46.80    -26.31     20.11
   26.6933     47.41     46.75    -25.72     20.11
   26.7035     47.82     46.70    -25.25     20.11
   26.7137     46.45     46.64    -26.57     20.11
   26.7238     47.66     46.59    -25.31     20.11
   26.7340     47.90     46.54    -25.01     20.11
   26.7442     47.69     46.48    -25.17     20.11
   26.7543     46.95     46.43    -25.86     20.11
   26.7645     47.58     46.38    -25.18     20.11
   26.7747     47.23     46.33    -25.48     20.11
   26.7848     45.34     46.28    -27.32     20.11
   26.7950     47.71     46.23    -24.90     20.11
   26.8052     46.88     46.19    -25.68     20.11
   26.8153     46.82     46.14    -25.70     20.11
   26.8255     47.35     46.09    -25.12     20.11
   26.8356     46.78     46.05    -25.64     20.11
   26.8458     46.48     46.00    -25.90     20.11
   26.8560     46.21     45.95    -26.12     20.11
   26.8661     47.29     45.91    -25.00     20.11
   26.8763     47.01     45.87    -25.24     20.11
   26.8865     46.92     45.82    -25.28     20.10
   26.8966     46.16     45.78    -26.00     20.10
   26.9068     46.14     45.74    -25.98     20.10
   26.9170     47.38     45.70    -24.70     20.10
   26.9271     47.98     45.66    -24.06     20.10
   26.9373     45.96     45.62    -26.04     20.10
   26.9475     46.36     45.59    -25.60     20.10
   26.9576     46.84     45.55    -25.09     20.10
   26.9678     45.71     45.51    -26.18     20.10
   26.9779     46.91     45.48    -24.95     20.10
   26.9881     45.60     45.44    -26.22     20.10
   26.9983     47.70     45.41    -24.09     20.10
   27.0084     46.94     45.38    -24.82     20.10
   27.0186     45.96     45.35    -25.77     20.10
   27.0288     47.02     45.32    -24.68     20.10
   27.0389     47.44     45.29    -24.23     20.10
   27.0491     46.59     45.26    -25.05     20.10
   27.0593     45.90     45.23    -25.71     20.10
   27.0694     46.73     45.21    -24.86     20.10
   27.0796     45.23     45.19    -26.33     20.10
   27.0898     46.95     45.16    -24.59     20.10
   27.0999     45.94     45.14    -25.58     20.10
   27.1101     46.61     45.12    -24.89     20.10
   27.1202     46.77     45.10    -24.71     20.10
   27.1304     45.41     45.09    -26.05     20.10
   27.1406     45.81     45.07    -25.64     20.09
   27.1507     46.91     45.06    -24.52     20.09
   27.1609     46.48     45.04    -24.94     20.09
   27.1711     46.74     45.03    -24.67     20.09
   27.1812     46.19     45.02    -25.21     20.09
   27.1914     46.32     45.02    -25.08     20.09
   27.2016     46.04     45.01    -25.35     20.09
   27.2117     46.32     45.01    -25.07     20.09
   27.2219     45.69     45.01    -25.69     20.09
   27.2321     45.42     45.01    -25.96     20.09
   27.2422     46.85     45.01    -24.54     20.09
   27.2524     47.41     45.01    -23.98     20.09
   27.2626     45.97     45.02    -25.43     20.09
   27.2727     45.38     45.03    -26.03     20.09
   27.2829     47.15     45.04    -24.27     20.09
   27.2930     45.79     45.05    -25.64     20.09
   27.3032     46.45     45.07    -24.99     20.09
   27.3134     45.60     45.08    -25.86     20.09
   27.3235     45.98     45.11    -25.50     20.09
   27.3337     45.01     45.13    -26.50     20.09
   27.3439     46.26     45.15    -25.27     20.09
   27.3540     46.43     45.18    -25.13     20.09
   27.3642     45.78     45.21    -25.81     20.09
   27.3744     46.84     45.25    -24.79     20.09
   27.3845     46.84     45.28    -24.82     20.09
   27.3947     45.86     45.32    -25.84     20.08
   27.4049     47.04     45.37    -24.71     20.08
   27.4150     47.27     45.41    -24.52     20.08
   27.4252     46.61     45.46    -25.23     20.08
   27.4353     46.74     45.52    -25.15     20.08
   27.4455     46.59     45.57    -25.36     20.08
   27.4557     46.12     45.63    -25.89     20.08
   27.4658     46.66     45.69    -25.41     20.08
   27.4760     46.48     45.76    -25.66     20.08
   27.4862     47.62     45.83    -24.59     20.08
   27.4963     46.65     45.90    -25.63     20.08
   27.5065     46.01     45.98    -26.35     20.08
   27.5167     46.68     46.06    -25.76     20.08
   27.5268     47.27     46.15    -25.26     20.08
   27.5370     46.45     46.24    -26.17     20.08
   27.5472     47.42     46.33    -25.29     20.08
   27.5573     48.22     46.43    -24.59     20.08
   27.5675     47.23     46.54    -25.68     20.08
   27.5777     48.11     46.64    -24.91     20.08
   27.5878     48.36     46.75    -24.77     20.08
   27.5980     47.75     46.87    -25.50     20.08
   27.6081     48.19     46.99    -25.18     20.08
   27.6183     47.09     47.11    -26.40     20.08
   27.6285     48.29     47.24    -25.33     20.08
   27.6386     48.30     47.38    -25.46     20.08
   27.6488     47.90     47.52    -25.99     20.07
   27.6590     47.59     47.66    -26.45     20.07
   27.6691     48.41     47.81    -25.78     20.07
   27.6793     49.10     47.96    -25.24     20.07
   27.6895     47.63     48.12    -26.87     20.07
   27.6996     47.56     48.29    -27.10     20.07
   27.7098     48.68     48.46    -26.15     20.07
   27.7200     48.12     48.63    -26.89     20.07
   27.7301     48.12     48.81    -27.07     20.07
   27.7403     48.72     48.99    -26.65     20.07
   27.7504     48.98     49.18    -26.58     20.07
   27.7606     49.33     49.38    -26.43     20.07
   27.7708     50.04     49.58    -25.92     20.07
   27.7809     49.37     49.78    -26.79     20.07
   27.7911     50.47     49.99    -25.90     20.07
   27.8013     49.99     50.21    -26.60     20.07
   27.8114     50.43     50.43    -26.38     20.07
   27.8216     50.08     50.66    -26.96     20.07
   27.8318     50.23     50.89    -27.04     20.07
   27.8419     51.70     51.13    -25.80     20.07
   27.8521     51.24     51.37    -26.51     20.07
   27.8623     51.05     51.62    -26.95     20.07
   27.8724     51.09     51.87    -27.16     20.07
   27.8826     50.84     52.13    -27.67     20.07
   27.8928     52.32     52.39    -26.45     20.07
   27.9029     51.00     52.66    -28.04     20.06
   27.9131     51.51     52.93    -27.80     20.06
   27.9232     52.14     53.21    -27.45     20.06
   27.9334     53.40     53.49    -26.47     20.06
   27.9436     53.63     53.78    -26.53     20.06
   27.9537     53.63     54.07    -26.82     20.06
   27.9639     54.16     54.37    -26.59     20.06
   27.9741     53.49     54.67    -27.56     20.06
   27.9842     53.95     54.97    -27.40     20.06
   27.9944     54.35     55.28    -27.31     20.06
   28.0046     55.40     55.60    -26.58     20.06
   28.0147     55.48     55.91    -26.81     20.06
   28.0249     56.76     56.23    -25.85     20.06
   28.0351     56.01     56.56    -26.93     20.06
   28.0452     55.48     56.89    -27.78     20.06
   28.0554     57.51     57.22    -26.09     20.06
   28.0655     55.85     57.55    -28.08     20.06
   28.0757     56.85     57.89    -27.42     20.06
   28.0859     57.90     58.23    -26.71     20.06
   28.0960     58.77     58.57    -26.18     20.06
   28.1062     57.71     58.92    -27.58     20.06
   28.1164     59.45     59.26    -26.19     20.06
   28.1265     59.40     59.61    -26.59     20.06
   28.1367     58.49     59.96    -27.85     20.06
   28.1469     59.99     60.31    -26.70     20.06
   28.1570     59.57     60.66    -27.47     20.05
   28.1672     60.30     61.02    -27.10     20.05
   28.1774     61.87     61.37    -25.88     20.05
   28.1875     61.65     61.72    -26.45     20.05
   28.1977     62.30     62.08    -26.15     20.05
   28.2079     63.04     62.43    -25.77     20.05
   28.2180     63.65     62.78    -25.51     20.05
   28.2282     64.70     63.13    -24.81     20.05
   28.2383     64.35     63.48    -25.50     20.05
   28.2485     64.21     63.82    -25.99     20.05
   28.2587     65.01     64.17    -25.54     20.05
   28.2688     66.69     64.51    -24.19     20.05
   28.2790     66.66     64.84    -24.56     20.05
   28.2892     67.30     65.18    -24.26     20.05
   28.2993     67.63     65.51    -24.25     20.05
   28.3095     68.41     65.83    -23.80     20.05
   28.3197     68.25     66.15    -24.28     20.05
   28.3298     69.24     66.47    -23.60     20.05
   28.3400     69.22     66.78    -23.93     20.05
   28.3502     68.74     67.08    -24.72     20.05
   28.3603     69.07     67.37    -24.68     20.05
   28.3705     69.28     67.66    -24.76     20.05
   28.3806     69.17     67.94    -25.15     20.05
   28.3908     70.46     68.21    -24.13     20.05
   28.4010     68.58     68.48    -26.27     20.05
   28.4111     71.19     68.73    -23.92     20.04
   28.4213     70.95     68.97    -24.40     20.04
   28.4315     70.23     69.21    -25.35     20.04
   28.4416     70.46     69.43    -25.35     20.04
   28.4518     69.54     69.64    -26.48     20.04
   28.4620     69.13     69.84    -27.09     20.04
   28.4721     70.78     70.03    -25.63     20.04
   28.4823     72.77     70.20    -23.81     20.04
   28.4925     71.23     70.37    -25.51     20.04
   28.5026     72.34     70.52    -24.55     20.04
   28.5128     71.40     70.65    -25.63     20.04
   28.5230     71.57     70.77    -25.58     20.04
   28.5331     71.80     70.88    -25.46     20.04
   28.5433     72.23     70.98    -25.12     20.04
   28.5534     71.85     71.05    -25.58     20.04
   28.5636     71.62     71.12    -25.88     20.04
   28.5738     70.85     71.17    -26.70     20.04
   28.5839     71.47     71.20    -26.11     20.04
   28.5941     73.74     71.22    -23.86     20.04
   28.6043     71.48     71.22    -26.12     20.04
   28.6144     71.72     71.21    -25.87     20.04
   28.6246     72.69     71.18    -24.87     20.04
   28.6348     72.33     71.14    -25.19     20.04
   28.6449     72.27     71.09    -25.19     20.04
   28.6551     71.43     71.01    -25.96     20.04
   28.6653     72.02     70.92    -25.28     20.04
   28.6754     70.42     70.82    -26.78     20.03
   28.6856     71.78     70.71    -25.30     20.03
   28.6957     71.00     70.58    -25.95     20.03
   28.7059     69.26     70.43    -27.55     20.03
   28.7161     69.90     70.27    -26.75     20.03
   28.7262     69.79     70.10    -26.69     20.03
   28.7364     68.86     69.92    -27.43     20.03
   28.7466     69.39     69.72    -26.71     20.03
   28.7567     68.90     69.51    -26.99     20.03
   28.7669     68.79     69.29    -26.88     20.03
   28.7771     67.77     69.06    -27.66     20.03
   28.7872     68.60     68.81    -26.59     20.03
   28.7974     67.52     68.56    -27.42     20.03
   28.8076     67.45     68.29    -27.22     20.03
   28.8177     67.54     68.02    -26.86     20.03
   28.8279     66.46     67.74    -27.66     20.03
   28.8381     67.09     67.45    -26.74     20.03
   28.8482     66.28     67.15    -27.25     20.03
   28.8584     65.46     66.84    -27.76     20.03
   28.8685     65.54     66.53    -27.37     20.03
   28.8787     66.63     66.21    -25.96     20.03
   28.8889     65.35     65.88    -26.91     20.03
   28.8990     62.98     65.55    -28.95     20.03
   28.9092     65.45     65.22    -26.14     20.03
   28.9194     64.18     64.87    -27.07     20.03
   28.9295     62.84     64.53    -28.07     20.02
   28.9397     62.52     64.18    -28.03     20.02
   28.9499     62.95     63.82    -27.25     20.02
   28.9600     61.71     63.47    -28.13     20.02
   28.9702     61.98     63.10    -27.50     20.02
   28.9804     60.60     62.74    -28.52     20.02
   28.9905     61.20     62.38    -27.56     20.02
   29.0007     60.39     62.01    -28.00     20.02
   29.0108     59.84     61.65    -28.18     20.02
   29.0210     59.32     61.28    -28.33     20.02
   29.0312     59.45     60.91    -27.83     20.02
   29.0413     58.26     60.54    -28.66     20.02
   29.0515     59.04     60.17    -27.51     20.02
   29.0617     58.94     59.80    -27.24     20.02
   29.0718     58.22     59.43    -27.59     20.02
   29.0820     58.02     59.07    -27.42     20.02
   29.0922     57.73     58.70    -27.35     20.02
   29.1023     56.93     58.34    -27.78     20.02
   29.1125     56.65     57.97    -27.70     20.02
   29.1227     56.92     57.61    -27.07     20.02
   29.1328     55.32     57.25    -28.31     20.02
   29.1430     55.79     56.89    -27.48     20.02
   29.1531     55.16     56.54    -27.76     20.02
   29.1633     54.01     56.19    -28.56     20.02
   29.1735     54.43     55.84    -27.79     20.02
   29.1836     54.29     55.49    -27.58     20.01
   29.1938     53.95     55.15    -27.58     20.01
   29.2040     53.52     54.81    -27.67     20.01
   29.2141     53.47     54.48    -27.38     20.01
   29.2243     53.30     54.14    -27.22     20.01
   29.2345     53.44     53.81    -26.75     20.01
   29.2446     52.63     53.49    -27.24     20.01
   29.2548     52.42     53.17    -27.13     20.01
   29.2650     52.29     52.85    -26.94     20.01
   29.2751     51.60     52.54    -27.32     20.01
   29.2853     51.00     52.23    -27.61     20.01
   29.2955     50.68     51.93    -27.62     20.01
   29.3056     50.93     51.63    -27.08     20.01
   29.3158     50.25     51.33    -27.46     20.01
   29.3259     50.77     51.04    -26.65     20.01
   29.3361     49.91     50.76    -27.22     20.01
   29.3463     50.57     50.47    -26.28     20.01
   29.3564     49.45     50.20    -27.13     20.01
   29.3666     50.66     49.93    -25.64     20.01
   29.3768     49.98     49.66    -26.06     20.01
   29.3869     48.86     49.40    -26.92     20.01
   29.3971     49.18     49.14    -26.34     20.01
   29.4073     48.21     48.88    -27.05     20.01
   29.4174     48.30     48.64    -26.72     20.01
   29.4276     49.65     48.39    -25.12     20.01
   29.4378     49.38     48.15    -25.15     20.00
   29.4479     46.93     47.92    -27.37     20.00
   29.4581     48.00     47.69    -26.07     20.00
   29.4682     46.86     47.47    -26.98     20.00
   29.4784     47.00     47.24    -26.62     20.00
   29.4886     47.37     47.03    -26.04     20.00
   29.4987     46.68     46.82    -26.52     20.00
   29.5089     46.73     46.61    -26.26     20.00
   29.5191     46.91     46.41    -25.87     20.00
   29.5292     47.18     46.21    -25.41     20.00
   29.5394     46.62     46.02    -25.77     20.00
   29.5496     44.97     45.83    -27.23     20.00
   29.5597     45.26     45.64    -26.76     20.00
   29.5699     46.05     45.46    -25.79     20.00
   29.5801     45.70     45.28    -25.96     20.00
   29.5902     45.85     45.11    -25.64     20.00
   29.6004     45.32     44.94    -26.00     20.00
   29.6106     44.73     44.78    -26.43     20.00
   29.6207     45.08     44.62    -25.92     20.00
   29.6309     45.54     44.46    -25.30     20.00
   29.6410     44.76     44.31    -25.93     20.00
   29.6512     44.14     44.16    -26.40     20.00
   29.6614     43.87     44.01    -26.52     20.00
   29.6715     44.32     43.87    -25.93     20.00
   29.6817     44.27     43.73    -25.84     20.00
   29.6919     44.27     43.59    -25.70     19.99
   29.7020     44.31     43.46    -25.53     19.99
   29.7122     43.51     43.33    -26.20     19.99
   29.7224     44.10     43.20    -25.48     19.99
   29.7325     43.60     43.08    -25.86     19.99
   29.7427     44.07     42.96    -25.27     19.99
   29.7529     44.03     42.84    -25.19     19.99
   29.7630     43.97     42.73    -25.14     19.99
   29.7732     43.33     42.61    -25.66     19.99
   29.7833     43.45     42.51    -25.43     19.99
   29.7935     43.97     42.40    -24.81     19.99
   29.8037     42.60     42.29    -26.07     19.99
   29.8138     42.13     42.19    -26.44     19.99
   29.8240     43.85     42.09    -24.62     19.99
   29.8342     41.91     41.99    -26.46     19.99
   29.8443     42.73     41.90    -25.55     19.99
   29.8545     43.34     41.80    -24.84     19.99
   29.8647     43.45     41.71    -24.64     19.99
   29.8748     42.47     41.62    -25.53     19.99
   29.8850     42.51     41.53    -25.40     19.99
   29.8952     42.59     41.45    -25.24     19.99
   29.9053     42.58     41.36    -25.16     19.99
   29.9155     42.71     41.28    -24.95     19.99
   29.9257     42.11     41.20    -25.47     19.99
   29.9358     42.50     41.12    -25.00     19.99
   29.9460     42.59     41.04    -24.83     19.98
   29.9561     43.04     40.96    -24.30     19.98
   29.9663     42.17     40.89    -25.10     19.98
   29.9765     41.84     40.81    -25.35     19.98
   29.9866     40.88     40.74    -26.24     19.98
   29.9968     42.00     40.67    -25.05     19.98
   30.0070     41.33     40.60    -25.64     19.98
   30.0171     40.57     40.53    -26.33     19.98
   30.0273     42.13     40.46    -24.70     19.98
   30.0375     41.68     40.39    -25.09     19.98
   30.0476     42.10     40.32    -24.60     19.98
   30.0578     40.70     40.25    -25.93     19.98
   30.0680     41.77     40.19    -24.80     19.98
   30.0781     41.35     40.12    -25.15     19.98
   30.0883     42.54     40.06    -23.90     19.98
   30.0984     41.87     40.00    -24.50     19.98
   30.1086     40.74     39.93    -25.57     19.98
   30.1188     40.90     39.87    -25.35     19.98
   30.1289     41.79     39.81    -24.40     19.98
   30.1391     40.67     39.75    -25.45     19.98
   30.1493     41.13     39.69    -24.93     19.98
   30.1594     40.64     39.63    -25.36     19.98
   30.1696     40.71     39.56    -25.23     19.98
   30.1798     41.08     39.50    -24.80     19.98
   30.1899     41.71     39.45    -24.11     19.98
   30.2001     40.30     39.39    -25.46     19.97
   30.2103     40.38     39.33    -25.32     19.97
   30.2204     40.13     39.27    -25.52     19.97
   30.2306     39.93     39.21    -25.66     19.97
   30.2408     41.11     39.15    -24.42     19.97
   30.2509     40.91     39.09    -24.56     19.97
   30.2611     40.04     39.04    -25.37     19.97
   30.2712     39.60     38.98    -25.76     19.97
   30.2814     40.19     38.92    -25.11     19.97
   30.2916     38.91     38.86    -26.33     19.97
   30.3017     39.46     38.81    -25.72     19.97
   30.3119     39.13     38.75    -26.00     19.97
   30.3221     39.50     38.69    -25.57     19.97
   30.3322     39.16     38.63    -25.85     19.97
   30.3424     39.88     38.58    -25.07     19.97
   30.3526     38.43     38.52    -26.47     19.97
   30.3627     39.37     38.46    -25.47     19.97
   30.3729     39.04     38.41    -25.74     19.97
   30.3831     38.14     38.35    -26.59     19.97
   30.3932     39.43     38.29    -25.24     19.97
   30.4034     38.48     38.23    -26.13     19.97
   30.4135     37.65     38.18    -26.91     19.97
   30.4237     38.99     38.12    -25.51     19.97
   30.4339     37.69     38.06    -26.75     19.97
   30.4440     39.08     38.01    -25.30     19.97
   30.4542     37.18     37.95    -27.15     19.97
   30.4644     37.20     37.89    -27.07     19.96
   30.4745     37.34     37.83    -26.87     19.96
   30.4847     38.22     37.78    -25.94     19.96
   30.4949     36.95     37.72    -27.15     19.96
   30.5050     36.88     37.66    -27.16     19.96
   30.5152     36.93     37.61    -27.05     19.96
   30.5254     36.19     37.55    -27.74     19.96
   30.5355     36.71     37.49    -27.16     19.96
   30.5457     36.95     37.43    -26.86     19.96
   30.5559     37.79     37.38    -25.96     19.96
   30.5660     36.73     37.32    -26.97     19.96
   30.5762     36.77     37.26    -26.87     19.96
   30.5863     36.88     37.20    -26.70     19.96
   30.5965     36.05     37.15    -27.47     19.96
   30.6067     37.37     37.09    -26.10     19.96
   30.6168     36.51     37.03    -26.90     19.96
   30.6270     35.70     36.97    -27.65     19.96
   30.6372     36.03     36.91    -27.26     19.96
   30.6473     36.51     36.86    -26.72     19.96
   30.6575     35.97     36.80    -27.21     19.96
   30.6677     35.84     36.74    -27.28     19.96
   30.6778     35.84     36.68    -27.22     19.96
   30.6880     34.86     36.63    -28.14     19.96
   30.6982     35.77     36.57    -27.18     19.96
   30.7083     35.46     36.51    -27.43     19.96
   30.7185     35.54     36.45    -27.29     19.95
   30.7286     35.27     36.39    -27.50     19.95
   30.7388     35.32     36.34    -27.39     19.95
   30.7490     35.30     36.28    -27.36     19.95
   30.7591     35.59     36.22    -27.01     19.95
   30.7693     35.57     36.16    -26.97     19.95
   30.7795     34.66     36.11    -27.82     19.95
   30.7896     35.62     36.05    -26.81     19.95
   30.7998     34.92     35.99    -27.45     19.95
   30.8100     35.09     35.93    -27.22     19.95
   30.8201     34.50     35.88    -27.75     19.95
   30.8303     35.81     35.82    -26.39     19.95
   30.8405     34.54     35.76    -27.60     19.95
   30.8506     34.77     35.70    -27.31     19.95
   30.8608     35.32     35.65    -26.71     19.95
   30.8710     33.84     35.59    -28.13     19.95
   30.8811     34.49     35.53    -27.42     19.95
   30.8913     34.84     35.48    -27.02     19.95
   30.9014     34.02     35.42    -27.78     19.95
   30.9116     35.59     35.36    -26.15     19.95
   30.9218     33.52     35.31    -28.17     19.95
   30.9319     34.86     35.25    -26.77     19.95
   30.9421     34.08     35.20    -27.49     19.95
   30.9523     34.85     35.14    -26.67     19.95
   30.9624     33.95     35.09    -27.51     19.95
   30.9726     33.98     35.03    -27.43     19.94
   30.9828     34.60     34.97    -26.75     19.94
   30.9929     33.83     34.92    -27.47     19.94
   31.0031     34.52     34.86    -26.72     19.94
   31.0133     34.49     34.81    -26.70     19.94
   31.0234     33.30     34.76    -27.83     19.94
   31.0336     33.45     34.70    -27.63     19.94
   31.0437     34.28     34.65    -26.75     19.94
   31.0539     33.54     34.59    -27.43     19.94
   31.0641     33.21     34.54    -27.71     19.94
   31.0742     33.66     34.49    -27.21     19.94
   31.0844     33.29     34.43    -27.52     19.94
   31.0946     33.29     34.38    -27.47     19.94
   31.1047     33.52     34.33    -27.19     19.94
   31.1149     32.93     34.28    -27.72     19.94
   31.1251     33.07     34.22    -27.53     19.94
   31.1352     34.09     34.17    -26.46     19.94
   31.1454     32.70     34.12    -27.80     19.94
   31.1556     33.32     34.07    -27.13     19.94
   31.1657     33.17     34.02    -27.23     19.94
   31.1759     32.10     33.97    -28.25     19.94
   31.1860     33.84     33.92    -26.46     19.94
   31.1962     33.70     33.87    -26.55     19.94
   31.2064     33.28     33.82    -26.92     19.94
   31.2165     33.07     33.77    -27.08     19.94
   31.2267     33.35     33.72    -26.75     19.93
   31.2369     32.67     33.67    -27.38     19.93
   31.2470     32.64     33.63    -27.36     19.93
   31.2572     33.48     33.58    -26.48     19.93
   31.2674     33.23     33.53    -26.68     19.93
   31.2775     32.63     33.48    -27.23     19.93
   31.2877     34.29     33.44    -25.53     19.93
   31.2979     32.36     33.39    -27.41     19.93
   31.3080     33.41     33.35    -26.31     19.93
   31.3182     33.23     33.30    -26.45     19.93
   31.3284     32.46     33.26    -27.17     19.93
   31.3385     31.85     33.21    -27.74     19.93
   31.3487     32.40     33.17    -27.15     19.93
   31.3588     33.23     33.12    -26.27     19.93
   31.3690     32.52     33.08    -26.94     19.93
   31.3792     32.52     33.04    -26.90     19.93
   31.3893     33.02     33.00    -26.35     19.93
   31.3995     32.97     32.95    -26.36     19.93
   31.4097     32.18     32.91    -27.11     19.93
   31.4198     32.40     32.87    -26.85     19.93
   31.4300     32.86     32.83    -26.35     19.93
   31.4402     32.98     32.79    -26.19     19.93
   31.4503     31.81     32.75    -27.32     19.93
   31.4605     31.26     32.71    -27.83     19.93
   31.4707     32.74     32.67    -26.31     19.93
   31.4808     32.30     32.64    -26.71     19.92
   31.4910     31.43     32.60    -27.55     19.92
   31.5011     32.91     32.56    -26.03     19.92
   31.5113     32.37     32.53    -26.53     19.92
   31.5215     32.32     32.49    -26.55     19.92
   31.5316     32.66     32.45    -26.17     19.92
   31.5418     32.65     32.42    -26.15     19.92
   31.5520     31.47     32.39    -27.29     19.92
   31.5621     31.93     32.35    -26.80     19.92
   31.5723     31.71     32.32    -26.99     19.92
   31.5825     31.36     32.29    -27.30     19.92
   31.5926     31.30     32.25    -27.33     19.92
   31.6028     32.06     32.22    -26.54     19.92
   31.6130     31.81     32.19    -26.76     19.92
   31.6231     31.81     32.16    -26.73     19.92
   31.6333     31.78     32.13    -26.73     19.92
   31.6435     32.66     32.10    -25.82     19.92
   31.6536     32.23     32.07    -26.22     19.92
   31.6638     31.82     32.05    -26.60     19.92
   31.6739     31.24     32.02    -27.16     19.92
   31.6841     32.52     31.99    -25.85     19.92
   31.6943     31.66     31.96    -26.68     19.92
   31.7044     31.78     31.94    -26.54     19.92
   31.7146     32.36     31.91    -25.93     19.92
   31.7248     31.46     31.89    -26.81     19.92
   31.7349     31.60     31.87    -26.64     19.91
   31.7451     31.98     31.84    -26.24     19.91
   31.7553     31.84     31.82    -26.36     19.91
   31.7654     31.41     31.80    -26.77     19.91
   31.7756     32.45     31.78    -25.70     19.91
   31.7858     32.19     31.75    -25.94     19.91
   31.7959     32.10     31.73    -26.01     19.91
   31.8061     31.81     31.71    -26.28     19.91
   31.8162     32.55     31.70    -25.52     19.91
   31.8264     31.95     31.68    -26.11     19.91
   31.8366     32.45     31.66    -25.59     19.91
   31.8467     31.09     31.64    -26.93     19.91
   31.8569     31.58     31.63    -26.42     19.91
   31.8671     31.37     31.61    -26.62     19.91
   31.8772     31.51     31.60    -26.46     19.91
   31.8874     31.92     31.58    -26.04     19.91
   31.8976     32.56     31.57    -25.38     19.91
   31.9077     32.40     31.55    -25.53     19.91
   31.9179     32.18     31.54    -25.74     19.91
   31.9281     31.67     31.53    -26.24     19.91
   31.9382     31.28     31.52    -26.61     19.91
   31.9484     31.84     31.51    -26.04     19.91
   31.9586     31.27     31.50    -26.60     19.91
   31.9687     31.43     31.49    -26.43     19.91
   31.9789     31.52     31.48    -26.34     19.91
   31.9890     32.58     31.47    -25.27     19.90
   31.9992     31.25     31.46    -26.59     19.90
   32.0094     31.24     31.45    -26.59     19.90
   32.0195     31.73     31.45    -26.10     19.90
   32.0297     31.74     31.44    -26.08     19.90
   32.0399     31.45     31.44    -26.36     19.90
   32.0500     31.62     31.43    -26.19     19.90
   32.0602     31.27     31.43    -26.54     19.90
   32.0704     32.55     31.42    -25.25     19.90
   32.0805     32.57     31.42    -25.23     19.90
   32.0907     32.18     31.42    -25.62     19.90
   32.1009     31.39     31.42    -26.41     19.90
   32.1110     32.16     31.42    -25.63     19.90
   32.1212     31.71     31.42    -26.08     19.90
   32.1313     31.54     31.42    -26.25     19.90
   32.1415     32.08     31.42    -25.72     19.90
   32.1517     32.05     31.42    -25.75     19.90
   32.1618     32.82     31.42    -24.98     19.90
   32.1720     32.12     31.42    -25.68     19.90
   32.1822     31.87     31.43    -25.93     19.90
   32.1923     32.19     31.43    -25.62     19.90
   32.2025     31.79     31.43    -26.02     19.90
   32.2127     32.29     31.44    -25.53     19.90
   32.2228     32.99     31.44    -24.83     19.90
   32.2330     32.40     31.45    -25.43     19.90
   32.2432     33.26     31.45    -24.57     19.90
   32.2533     33.03     31.46    -24.81     19.89
   32.2635     32.78     31.47    -25.07     19.89
   32.2737     31.66     31.48    -26.19     19.89
   32.2838     32.65     31.48    -25.21     19.89
   32.2940     32.80     31.49    -25.07     19.89
   32.3041     31.81     31.50    -26.07     19.89
   32.3143     32.68     31.51    -25.21     19.89
   32.3245     33.26     31.52    -24.64     19.89
   32.3346     32.38     31.53    -25.53     19.89
   32.3448     32.52     31.54    -25.40     19.89
   32.3550     32.57     31.55    -25.36     19.89
   32.3651     31.82     31.57    -26.12     19.89
   32.3753     31.84     31.58    -26.12     19.89
   32.3855     32.93     31.59    -25.04     19.89
   32.3956     32.59     31.60    -25.39     19.89
   32.4058     31.50     31.62    -26.50     19.89
   32.4160     31.76     31.63    -26.25     19.89
   32.4261     32.28     31.64    -25.74     19.89
   32.4363     32.85     31.66    -25.19     19.89
   32.4464     32.76     31.67    -25.29     19.89
   32.4566     32.45     31.69    -25.62     19.89
   32.4668     33.37     31.70    -24.71     19.89
   32.4769     32.80     31.72    -25.30     19.89
   32.4871     33.27     31.73    -24.84     19.89
   32.4973     32.30     31.75    -25.83     19.89
   32.5074     32.82     31.77    -25.33     19.88
   32.5176     32.67     31.78    -25.49     19.88
   32.5278     32.48     31.80    -25.70     19.88
   32.5379     32.64     31.82    -25.56     19.88
   32.5481     31.75     31.83    -26.46     19.88
   32.5583     32.32     31.85    -25.91     19.88
   32.5684     32.19     31.87    -26.06     19.88
   32.5786     32.49     31.89    -25.77     19.88
   32.5888     32.15     31.90    -26.13     19.88
   32.5989     32.43     31.92    -25.87     19.88
   32.6091     32.96     31.94    -25.36     19.88
   32.6192     32.59     31.96    -25.74     19.88
   32.6294     31.87     31.97    -26.48     19.88
   32.6396     31.90     31.99    -26.47     19.88
   32.6497     32.83     32.01    -25.56     19.88
   32.6599     31.99     32.03    -26.42     19.88
   32.6701     31.94     32.05    -26.48     19.88
   32.6802     32.70     32.06    -25.74     19.88
   32.6904     32.68     32.08    -25.78     19.88
   32.7006     32.15     32.10    -26.33     19.88
   32.7107     32.32     32.12    -26.17     19.88
   32.7209     31.87     32.13    -26.64     19.88
   32.7311     32.12     32.15    -26.41     19.88
   32.7412     32.26     32.17    -26.29     19.88
   32.7514     32.31     32.18    -26.25     19.88
   32.7615     32.23     32.20    -26.35     19.87
   32.7717     33.05     32.22    -25.55     19.87
   32.7819     32.84     32.23    -25.77     19.87
   32.7920     31.80     32.25    -26.83     19.87
   32.8022     32.25     32.26    -26.39     19.87
   32.8124     32.71     32.28    -25.95     19.87
   32.8225     31.84     32.29    -26.83     19.87
   32.8327     32.01     32.31    -26.68     19.87
   32.8429     32.77     32.32    -25.93     19.87
   32.8530     31.44     32.34    -27.27     19.87
   32.8632     32.07     32.35    -26.66     19.87
   32.8734     32.57     32.36    -26.17     19.87
   32.8835     31.89     32.37    -26.86     19.87
   32.8937     32.85     32.39    -25.91     19.87
   32.9039     32.26     32.40    -26.51     19.87
   32.9140     32.59     32.41    -26.20     19.87
   32.9242     32.73     32.42    -26.07     19.87
   32.9343     32.73     32.43    -26.07     19.87
   32.9445     32.57     32.44    -26.24     19.87
   32.9547     31.74     32.44    -27.08     19.87
   32.9648     32.61     32.45    -26.22     19.87
   32.9750     31.61     32.46    -27.23     19.87
   32.9852     32.05     32.46    -26.79     19.87
   32.9953     32.59     32.47    -26.26     19.87
   33.0055     31.29     32.47    -27.56     19.87
   33.0157     32.23     32.48    -26.62     19.86
   33.0258     32.73     32.48    -26.13     19.86
   33.0360     32.17     32.48    -26.69     19.86
   33.0462     32.00     32.48    -26.86     19.86
   33.0563     31.83     32.48    -27.03     19.86
   33.0665     31.98     32.48    -26.88     19.86
   33.0766     32.63     32.48    -26.23     19.86
   33.0868     31.80     32.48    -27.06     19.86
   33.0970     32.66     32.48    -26.19     19.86
   33.1071     31.73     32.47    -27.12     19.86
   33.1173     32.20     32.47    -26.64     19.86
   33.1275     31.97     32.46    -26.87     19.86
   33.1376     32.19     32.45    -26.64     19.86
   33.1478     32.61     32.45    -26.21     19.86
   33.1580     31.88     32.44    -26.93     19.86
   33.1681     33.60     32.43    -25.20     19.86
   33.1783     32.51     32.42    -26.28     19.86
   33.1885     32.19     32.40    -26.59     19.86
   33.1986     31.90     32.39    -26.87     19.86
   33.2088     32.74     32.38    -26.01     19.86
   33.2189     31.70     32.36    -27.04     19.86
   33.2291     31.55     32.35    -27.17     19.86
   33.2393     32.48     32.33    -26.23     19.86
   33.2494     31.46     32.31    -27.23     19.86
   33.2596     31.92     32.29    -26.75     19.86
   33.2698     32.20     32.27    -26.45     19.85
   33.2799     32.04     32.25    -26.59     19.85
   33.2901     32.74     32.23    -25.86     19.85
   33.3003     31.78     32.20    -26.80     19.85
   33.3104     32.38     32.18    -26.18     19.85
   33.3206     32.61     32.15    -25.92     19.85
   33.3308     32.03     32.13    -26.47     19.85
   33.3409     32.61     32.10    -25.87     19.85
   33.3511     31.97     32.07    -26.48     19.85
   33.3613     32.51     32.04    -25.91     19.85
   33.3714     32.12     32.01    -26.27     19.85
   33.3816     32.63     31.98    -25.73     19.85
   33.3917     32.07     31.95    -26.26     19.85
   33.4019     32.01     31.91    -26.28     19.85
   33.4121     32.01     31.88    -26.25     19.85
   33.4222     32.04     31.84    -26.18     19.85
   33.4324     31.79     31.81    -26.40     19.85
   33.4426     32.37     31.77    -25.78     19.85
   33.4527     33.03     31.73    -25.08     19.85
   33.4629     32.52     31.69    -25.55     19.85
   33.4731     32.78     31.65    -25.25     19.85
   33.4832     32.29     31.61    -25.70     19.85
   33.4934     32.18     31.57    -25.77     19.85
   33.5036     31.45     31.53    -26.46     19.85
   33.5137     32.20     31.49    -25.66     19.85
   33.5239     31.58     31.44    -26.24     19.84
   33.5340     31.94     31.40    -25.84     19.84
   33.5442     32.44     31.35    -25.29     19.84
   33.5544     31.37     31.31    -26.31     19.84
   33.5645     31.51     31.26    -26.13     19.84
   33.5747     31.64     31.21    -25.95     19.84
   33.5849     31.32     31.16    -26.22     19.84
   33.5950     31.81     31.12    -25.68     19.84
   33.6052     32.05     31.07    -25.40     19.84
   33.6154     30.85     31.02    -26.55     19.84
   33.6255     31.46     30.97    -25.89     19.84
   33.6357     30.87     30.92    -26.42     19.84
   33.6459     31.59     30.86    -25.65     19.84
   33.6560     30.59     30.81    -26.60     19.84
   33.6662     30.36     30.76    -26.78     19.84
   33.6764     31.30     30.71    -25.78     19.84
   33.6865     30.37     30.65    -26.66     19.84
   33.6967     30.01     30.60    -26.97     19.84
   33.7068     30.32     30.55    -26.60     19.84
   33.7170     30.65     30.49    -26.22     19.84
   33.7272     30.00     30.44    -26.81     19.84
   33.7373     29.88     30.38    -26.88     19.84
   33.7475     29.46     30.32    -27.24     19.84
   33.7577     29.87     30.27    -26.78     19.84
   33.7678     29.76     30.21    -26.83     19.84
   33.7780     30.26     30.16    -26.27     19.83
   33.7882     29.98     30.10    -26.50     19.83
   33.7983     28.84     30.04    -27.58     19.83
   33.8085     30.65     29.98    -25.71     19.83
   33.8187     29.44     29.93    -26.86     19.83
   33.8288     29.49     29.87    -26.76     19.83
   33.8390     29.46     29.81    -26.73     19.83
   33.8491     29.43     29.75    -26.70     19.83
   33.8593     29.15     29.70    -26.92     19.83
   33.8695     29.82     29.64    -26.20     19.83
   33.8796     29.20     29.58    -26.76     19.83
   33.8898     29.19     29.52    -26.71     19.83
   33.9000     28.62     29.46    -27.22     19.83
   33.9101     28.57     29.40    -27.21     19.83
   33.9203     28.62     29.35    -27.10     19.83
   33.9305     28.70     29.29    -26.96     19.83
   33.9406     28.66     29.23    -26.95     19.83
   33.9508     28.85     29.17    -26.70     19.83
   33.9610     28.57     29.11    -26.92     19.83
   33.9711     28.49     29.05    -26.94     19.83
   33.9813     27.75     28.99    -27.62     19.83
   33.9915     28.64     28.94    -26.67     19.83
   34.0016     28.16     28.88    -27.10     19.83
   34.0118     28.05     28.82    -27.15     19.83
   34.0219     28.19     28.76    -26.95     19.83
   34.0321     28.01     28.70    -27.07     19.82
   34.0423     27.88     28.64    -27.14     19.82
   34.0524     27.82     28.59    -27.15     19.82
   34.0626     28.07     28.53    -26.84     19.82
   34.0728     27.35     28.47    -27.50     19.82
   34.0829     28.02     28.42    -26.77     19.82
   34.0931     27.71     28.36    -27.03     19.82
   34.1033     27.59     28.30    -27.09     19.82
   34.1134     28.07     28.24    -26.55     19.82
   34.1236     27.36     28.19    -27.21     19.82
   34.1338     26.87     28.13    -27.64     19.82
   34.1439     27.20     28.08    -27.25     19.82
   34.1541     26.71     28.02    -27.69     19.82
   34.1642     26.64     27.96    -27.70     19.82
   34.1744     26.85     27.91    -27.44     19.82
   34.1846     27.36     27.85    -26.87     19.82
   34.1947     27.07     27.80    -27.11     19.82
   34.2049     26.55     27.74    -27.57     19.82
   34.2151     27.18     27.69    -26.89     19.82
   34.2252     26.46     27.64    -27.55     19.82
   34.2354     26.52     27.58    -27.44     19.82
   34.2456     26.56     27.53    -27.35     19.82
   34.2557     26.90     27.48    -26.95     19.82
   34.2659     26.55     27.42    -27.25     19.82
   34.2761     27.05     27.37    -26.70     19.82
   34.2862     26.76     27.32    -26.94     19.82
   34.2964     26.81     27.27    -26.84     19.81
   34.3066     26.23     27.22    -27.36     19.81
   34.3167     26.04     27.17    -27.50     19.81
   34.3269     25.79     27.11    -27.70     19.81
   34.3370     26.54     27.06    -26.90     19.81
   34.3472     26.48     27.01    -26.91     19.81
   34.3574     26.64     26.96    -26.70     19.81
   34.3675     25.42     26.92    -27.87     19.81
   34.3777     26.60     26.87    -26.64     19.81
   34.3879     25.95     26.82    -27.25     19.81
   34.3980     25.92     26.77    -27.23     19.81
   34.4082     26.33     26.72    -26.77     19.81
   34.4184     26.48     26.67    -26.57     19.81
   34.4285     25.53     26.63    -27.48     19.81
   34.4387     25.93     26.58    -27.03     19.81
   34.4489     25.27     26.53    -27.64     19.81
   34.4590     26.19     26.49    -26.68     19.81
   34.4692     26.32     26.44    -26.50     19.81
   34.4793     25.49     26.40    -27.29     19.81
   34.4895     26.13     26.35    -26.60     19.81
   34.4997     26.03     26.31    -26.66     19.81
   34.5098     26.30     26.27    -26.34     19.81
   34.5200     25.51     26.22    -27.09     19.81
   34.5302     24.88     26.18    -27.68     19.81
   34.5403     26.45     26.14    -26.07     19.81
   34.5505     26.02     26.09    -26.45     19.80
   34.5607     25.96     26.05    -26.47     19.80
   34.5708     25.83     26.01    -26.56     19.80
   34.5810     24.98     25.97    -27.37     19.80
   34.5912     26.13     25.93    -26.18     19.80
   34.6013     25.75     25.89    -26.52     19.80
   34.6115     26.60     25.85    -25.63     19.80
   34.6217     25.70     25.81    -26.49     19.80
   34.6318     25.09     25.77    -27.06     19.80
   34.6420     25.93     25.73    -26.18     19.80
   34.6521     26.01     25.70    -26.06     19.80
   34.6623     25.54     25.66    -26.50     19.80
   34.6725     26.15     25.62    -25.85     19.80
   34.6826     25.32     25.58    -26.64     19.80
   34.6928     26.04     25.55    -25.89     19.80
   34.7030     25.47     25.51    -26.42     19.80
   34.7131     25.41     25.48    -26.44     19.80
   34.7233     25.70     25.44    -26.12     19.80
   34.7335     25.57     25.41    -26.21     19.80
   34.7436     25.57     25.37    -26.18     19.80
   34.7538     25.16     25.34    -26.55     19.80
   34.7640     25.80     25.30    -25.88     19.80
   34.7741     25.15     25.27    -26.50     19.80
   34.7843     25.16     25.24    -26.45     19.80
   34.7944     25.46     25.20    -26.12     19.80
   34.8046     24.94     25.17    -26.61     19.79
   34.8148     25.47     25.14    -26.05     19.79
   34.8249     25.49     25.11    -26.00     19.79
   34.8351     25.01     25.08    -26.45     19.79
   34.8453     25.25     25.05    -26.18     19.79
   34.8554     25.32     25.02    -26.08     19.79
   34.8656     25.23     24.99    -26.14     19.79
   34.8758     24.94     24.96    -26.40     19.79
   34.8859     25.87     24.93    -25.44     19.79
   34.8961     24.51     24.90    -26.77     19.79
   34.9063     23.99     24.87    -27.26     19.79
   34.9164     23.98     24.84    -27.24     19.79
   34.9266     25.64     24.82    -25.55     19.79
   34.9367     24.68     24.79    -26.49     19.79
   34.9469     25.31     24.76    -25.83     19.79
   34.9571     25.37     24.73    -25.74     19.79
   34.9672     24.79     24.71    -26.30     19.79
   34.9774     25.68     24.68    -25.38     19.79
   34.9876     25.84     24.66    -25.19     19.79
   34.9977     25.16     24.63    -25.85     19.79
   35.0079     24.55     24.61    -26.43     19.79
   35.0181     24.98     24.58    -25.98     19.79
   35.0282     24.54     24.56    -26.40     19.79
   35.0384     24.26     24.53    -26.65     19.79
   35.0486     24.91     24.51    -25.98     19.79
   35.0587     24.17     24.49    -26.69     19.78
   35.0689     24.45     24.46    -26.39     19.78
   35.0791     24.65     24.44    -26.17     19.78
   35.0892     24.40     24.42    -26.40     19.78
   35.0994     24.63     24.40    -26.14     19.78
   35.1095     24.23     24.37    -26.52     19.78
   35.1197     24.82     24.35    -25.91     19.78
   35.1299     25.70     24.33    -25.01     19.78
   35.1400     24.96     24.31    -25.73     19.78
   35.1502     25.13     24.29    -25.54     19.78
   35.1604     24.65     24.27    -26.00     19.78
   35.1705     25.01     24.25    -25.62     19.78
   35.1807     24.49     24.23    -26.12     19.78
   35.1909     24.82     24.21    -25.77     19.78
   35.2010     24.51     24.19    -26.06     19.78
   35.2112     25.07     24.17    -25.48     19.78
   35.2214     24.85     24.15    -25.68     19.78
   35.2315     24.29     24.13    -26.22     19.78
   35.2417     24.75     24.11    -25.74     19.78
   35.2518     24.25     24.10    -26.22     19.78
   35.2620     24.87     24.08    -25.59     19.78
   35.2722     23.82     24.06    -26.62     19.78
   35.2823     24.21     24.04    -26.21     19.78
   35.2925     24.30     24.03    -26.10     19.78
   35.3027     24.61     24.01    -25.78     19.78
   35.3128     24.39     23.99    -25.98     19.77
   35.3230     23.87     23.97    -26.48     19.77
   35.3332     24.51     23.96    -25.83     19.77
   35.3433     24.82     23.94    -25.50     19.77
   35.3535     24.79     23.93    -25.51     19.77
   35.3637     24.24     23.91    -26.05     19.77
   35.3738     24.12     23.90    -26.15     19.77
   35.3840     24.67     23.88    -25.59     19.77
   35.3942     24.45     23.86    -25.79     19.77
   35.4043     24.80     23.85    -25.43     19.77
   35.4145     25.23     23.84    -24.98     19.77
   35.4246     23.82     23.82    -26.38     19.77
   35.4348     24.02     23.81    -26.16     19.77
   35.4450     23.91     23.79    -26.26     19.77
   35.4551     24.71     23.78    -25.45     19.77
   35.4653     24.63     23.76    -25.51     19.77
   35.4755     24.55     23.75    -25.58     19.77
   35.4856     24.56     23.74    -25.56     19.77
   35.4958     24.15     23.72    -25.95     19.77
   35.5060     24.26     23.71    -25.83     19.77
   35.5161     25.03     23.70    -25.05     19.77
   35.5263     25.04     23.68    -25.02     19.77
   35.5365     24.47     23.67    -25.58     19.77
   35.5466     24.52     23.66    -25.52     19.77
   35.5568     24.50     23.65    -25.53     19.77
   35.5669     24.49     23.63    -25.52     19.76
   35.5771     24.35     23.62    -25.65     19.76
   35.5873     24.40     23.61    -25.59     19.76
   35.5974     24.44     23.60    -25.54     19.76
   35.6076     24.35     23.59    -25.62     19.76
   35.6178     24.88     23.58    -25.07     19.76
   35.6279     23.67     23.56    -26.27     19.76
   35.6381     24.73     23.55    -25.20     19.76
   35.6483     24.16     23.54    -25.76     19.76
   35.6584     24.12     23.53    -25.79     19.76
   35.6686     23.99     23.52    -25.91     19.76
   35.6788     24.43     23.51    -25.46     19.76
   35.6889     23.94     23.50    -25.94     19.76
   35.6991     24.54     23.49    -25.33     19.76
   35.7093     24.22     23.48    -25.64     19.76
   35.7194     24.09     23.47    -25.76     19.76
   35.7296     24.22     23.46    -25.62     19.76
   35.7397     23.95     23.45    -25.87     19.76
   35.7499     24.29     23.44    -25.52     19.76
   35.7601     23.82     23.43    -25.98     19.76
   35.7702     23.52     23.42    -26.28     19.76
   35.7804     24.51     23.41    -25.28     19.76
   35.7906     24.28     23.40    -25.50     19.76
   35.8007     24.11     23.39    -25.66     19.76
   35.8109     24.41     23.38    -25.35     19.76
   35.8211     23.30     23.37    -26.45     19.75
   35.8312     23.55     23.36    -26.19     19.75
   35.8414     24.20     23.35    -25.53     19.75
   35.8516     23.38     23.34    -26.34     19.75
   35.8617     23.69     23.33    -26.02     19.75
   35.8719     23.64     23.32    -26.06     19.75
   35.8820     23.93     23.32    -25.76     19.75
   35.8922     24.52     23.31    -25.16     19.75
   35.9024     24.39     23.30    -25.29     19.75
   35.9125     23.09     23.29    -26.58     19.75
   35.9227     23.82     23.28    -25.84     19.75
   35.9329     24.04     23.27    -25.61     19.75
   35.9430     23.55     23.26    -26.09     19.75
   35.9532     23.74     23.26    -25.89     19.75
   35.9634     23.57     23.25    -26.06     19.75
   35.9735     24.55     23.24    -25.07     19.75
   35.9837     23.84     23.23    -25.77     19.75
   35.9939     23.62     23.22    -25.98     19.75
   36.0040     23.40     23.22    -26.19     19.75
   36.0142     24.02     23.21    -25.57     19.75
   36.0244     24.03     23.20    -25.55     19.75
   36.0345     23.80     23.19    -25.77     19.75
   36.0447     24.27     23.18    -25.29     19.75
   36.0548     24.20     23.18    -25.35     19.75
   36.0650     24.02     23.17    -25.53     19.75
   36.0752     23.46     23.16    -26.08     19.75
   36.0853     23.88     23.15    -25.65     19.74
   36.0955     24.16     23.15    -25.36     19.74
   36.1057     23.80     23.14    -25.72     19.74
   36.1158     24.56     23.13    -24.95     19.74
   36.1260     23.99     23.12    -25.51     19.74
   36.1362     23.77     23.12    -25.72     19.74
   36.1463     24.55     23.11    -24.94     19.74
   36.1565     24.42     23.10    -25.06     19.74
   36.1667     23.76     23.10    -25.71     19.74
   36.1768     23.34     23.09    -26.13     19.74
