! WinPLOTR profile fitting results:
!   data file: G106--5-40-0.01-1000ms.xy
!    wave (A):      1.54060     1.54060     0.50000
!
!   2theta(deg.) sig_2th        d(A)   Intensity     sig_int         FWHM    FWHM_sig         ETA     ETA_sig
!------------------------------------------------------------------------------------------------------------------
   18.647585    0.005815     4.75454      168.96        3.80     0.822812    0.017758    0.500000    0.000000
   20.556028    0.022999     4.31723       40.87        3.96     0.890425    0.073589    0.500000    0.000000
   22.489750    0.011082     3.95020      106.67        3.46     1.021077    0.031818    0.500000    0.000000
   28.521305    0.000000     3.12706       61.38        0.00     1.320614    0.000000    0.500000    0.000000
   30.192144    0.000000     2.95771       10.00        0.00   -12.822560    0.000000    0.500000    0.000000
   33.345863    0.000000     2.68483       50.00        0.00     4.678573    0.000000    0.500000    0.000000
   17.076023    0.000000     5.18841       46.83        0.00     2.678572    0.000000    0.500000    0.000000
   20.146198    0.000000     4.40412      968.80        9.94     8.786805    0.094394    0.500000    0.000000
   18.630886    0.000000     4.75876      238.80        2.18     1.267196    0.000000    0.000100    0.000000
   20.523422    0.000000     4.32401      133.89        1.74     1.267196    0.000000    0.000100    0.000000
   22.575935    0.000000     3.93532      185.42        1.76     1.267196    0.000000    0.000100    0.000000
   28.500000    0.000000     3.12935       76.41        1.16     1.267196    0.000000    0.000100    0.000000
   29.983290    0.000000     2.97783        5.69        0.00     1.767196    0.000000    0.000100    0.000000
   33.366749    0.000000     2.68320        4.74        0.00     1.767196    0.000000    0.000100    0.000000
   17.243107    0.000000     5.13851      635.97        4.29    11.739056    0.082727    0.000100    0.000000
   18.652449    0.000000     4.75331      175.22        4.21     0.743843    0.016424    0.746732    0.011335
   20.600000    0.000000     4.30811       36.16        3.49     0.724085    0.068048    0.746732    0.011335
   22.485018    0.000000     3.95102      121.07        5.29     1.005764    0.036178    0.746732    0.011335
   28.543701    0.000000     3.12466       62.24        2.55     1.244879    0.057992    0.746732    0.011335
   30.087717    0.000000     2.96773       36.03        2.66     2.957650    0.000000    0.746732    0.011335
   33.345863    0.000000     2.68483       13.88        0.96     0.935748    0.000000    0.746732    0.011335
   17.096909    0.000000     5.18212      101.99        5.30     2.757650    0.000000    0.746732    0.011335
   20.292397    0.000000     4.37272     1012.98       14.58     8.256502    0.000000    0.746732    0.011335
   18.640236    0.005875     4.75640      145.68        3.31     0.759902    0.017515    0.435118    0.012900
   20.597078    0.023634     4.30872       24.10        2.72     0.649745    0.070926    0.435118    0.012900
   22.508688    0.011342     3.94692      102.11        3.51     1.032080    0.032488    0.435118    0.012900
   28.494789    0.022255     3.12991       66.81        2.53     1.527033    0.058870    0.435118    0.012900
   30.025061    0.000000     2.97378       37.21        2.45     2.619644    0.000000    0.435118    0.012900
   33.366749    0.000000     2.68320       31.73        1.47     2.619644    0.000000    0.435118    0.012900
   19.713530    0.024852     4.49979     1102.08        9.57     8.702756    0.082414    0.435118    0.012900
