 => TITLE: 
 => Data file name: C:\Users\stefano\Nextcloud2\uni\master-thesis\XRD\data\G309\G309--5-40-0.01-1000ms.xy
 => Instrm        :    1
 => Lambda(1&2)   :   1.54060  1.54060
 => Numb.of.points:      2951
 => Numb.of.peaks :         7
    2Theta     Yobs     Ycalc  Yobs-Ycal    Backg    Bragg     Posr  Intensity   FWHM    Eta
    6.0086     25.12     25.94    -22.32     20.00   18.6415      0.78     133.07  0.7955  0.7083
    6.0187     24.30     25.95    -23.15     20.00   20.5806      0.78      10.05  0.5056  0.7083
    6.0289     24.87     25.96    -22.59     20.00   22.4953      0.78      91.25  1.1138  0.7083
    6.0391     24.78     25.96    -22.68     20.00   28.4722      0.78      61.08  1.7010  0.7083
    6.0492     25.05     25.97    -22.42     20.00   30.0125      0.78      23.29  2.1258  0.7083
    6.0594     24.51     25.98    -22.97     20.00   33.3020      0.78      16.29  2.1258  0.7083
    6.0696     24.70     25.99    -22.79     20.00   19.5823      0.78    1215.70  8.4843  0.7083
    6.0797     24.98     26.00    -22.52     20.00
    6.0899     24.76     26.01    -22.75     20.00
    6.1001     24.40     26.02    -23.12     20.00
    6.1102     24.12     26.02    -23.40     20.00
    6.1204     24.34     26.03    -23.19     20.00
    6.1306     24.07     26.04    -23.47     20.00
    6.1407     23.88     26.05    -23.67     20.00
    6.1509     24.46     26.06    -23.10     20.00
    6.1611     23.49     26.07    -24.08     20.00
    6.1712     23.95     26.08    -23.63     20.00
    6.1814     24.68     26.08    -22.90     20.00
    6.1915     24.10     26.09    -23.49     20.00
    6.2017     24.59     26.10    -23.01     20.00
    6.2119     25.15     26.11    -22.46     20.00
    6.2220     24.02     26.12    -23.60     20.00
    6.2322     24.43     26.13    -23.20     20.00
    6.2424     25.34     26.14    -22.30     20.00
    6.2525     24.12     26.15    -23.53     20.00
    6.2627     24.09     26.16    -23.57     20.00
    6.2729     24.46     26.16    -23.20     20.00
    6.2830     24.02     26.17    -23.65     20.00
    6.2932     23.81     26.18    -23.87     20.00
    6.3034     24.96     26.19    -22.73     20.00
    6.3135     24.70     26.20    -23.00     20.00
    6.3237     24.44     26.21    -23.27     20.00
    6.3338     23.95     26.22    -23.77     20.00
    6.3440     23.98     26.23    -23.75     20.00
    6.3542     24.74     26.24    -23.00     20.00
    6.3643     23.25     26.25    -24.50     20.00
    6.3745     24.71     26.25    -23.04     20.00
    6.3847     24.29     26.26    -23.47     20.00
    6.3948     24.40     26.27    -23.37     20.00
    6.4050     23.46     26.28    -24.32     20.00
    6.4152     24.23     26.29    -23.56     20.00
    6.4253     24.59     26.30    -23.21     20.00
    6.4355     24.70     26.31    -23.11     20.00
    6.4457     24.30     26.32    -23.52     20.00
    6.4558     23.79     26.33    -24.04     20.00
    6.4660     24.13     26.34    -23.71     20.00
    6.4762     24.60     26.35    -23.25     20.00
    6.4863     25.29     26.36    -22.57     20.00
    6.4965     24.24     26.37    -23.63     20.00
    6.5066     24.68     26.38    -23.20     20.00
    6.5168     23.87     26.38    -24.01     20.00
    6.5270     24.14     26.39    -23.75     20.00
    6.5371     23.07     26.40    -24.83     20.00
    6.5473     24.29     26.41    -23.62     20.00
    6.5575     23.74     26.42    -24.18     20.00
    6.5676     24.41     26.43    -23.52     20.00
    6.5778     23.76     26.44    -24.18     20.00
    6.5880     24.95     26.45    -23.00     20.00
    6.5981     25.18     26.46    -22.78     20.00
    6.6083     24.10     26.47    -23.87     20.00
    6.6185     24.98     26.48    -23.00     20.00
    6.6286     24.46     26.49    -23.53     20.00
    6.6388     24.29     26.50    -23.71     20.00
    6.6489     24.88     26.51    -23.13     20.00
    6.6591     24.36     26.52    -23.66     20.00
    6.6693     25.04     26.53    -22.99     20.00
    6.6794     24.06     26.54    -23.98     20.00
    6.6896     24.38     26.55    -23.67     20.00
    6.6998     24.21     26.56    -23.85     20.00
    6.7099     24.59     26.57    -23.48     20.00
    6.7201     24.57     26.58    -23.51     20.00
    6.7303     24.89     26.59    -23.20     20.00
    6.7404     25.12     26.60    -22.98     20.00
    6.7506     25.82     26.61    -22.29     20.00
    6.7608     25.19     26.62    -22.93     20.00
    6.7709     25.22     26.63    -22.91     20.00
    6.7811     24.23     26.64    -23.91     20.00
    6.7913     24.82     26.65    -23.33     20.00
    6.8014     25.22     26.66    -22.94     20.00
    6.8116     23.48     26.67    -24.69     20.00
    6.8217     25.36     26.68    -22.82     20.00
    6.8319     25.09     26.69    -23.10     20.00
    6.8421     25.10     26.70    -23.10     20.00
    6.8522     24.85     26.71    -23.36     20.00
    6.8624     24.54     26.72    -23.68     20.00
    6.8726     24.45     26.73    -23.78     20.00
    6.8827     24.77     26.74    -23.47     20.00
    6.8929     24.96     26.75    -23.29     20.00
    6.9031     25.14     26.76    -23.12     20.00
    6.9132     25.03     26.77    -23.24     20.00
    6.9234     24.70     26.78    -23.58     20.00
    6.9336     25.18     26.79    -23.11     20.00
    6.9437     24.40     26.80    -23.90     20.00
    6.9539     24.34     26.81    -23.97     20.00
    6.9640     25.74     26.83    -22.59     20.00
    6.9742     25.18     26.84    -23.16     20.00
    6.9844     25.09     26.85    -23.26     20.00
    6.9945     25.22     26.86    -23.14     20.00
    7.0047     25.33     26.87    -23.04     20.00
    7.0149     24.32     26.88    -24.06     20.00
    7.0250     25.30     26.89    -23.09     20.00
    7.0352     25.00     26.90    -23.40     20.00
    7.0454     24.58     26.91    -23.83     20.00
    7.0555     24.70     26.92    -23.72     20.00
    7.0657     25.19     26.93    -23.24     20.00
    7.0759     24.99     26.94    -23.45     20.00
    7.0860     24.78     26.95    -23.67     20.00
    7.0962     24.82     26.97    -23.65     20.00
    7.1064     25.19     26.98    -23.29     20.00
    7.1165     25.27     26.99    -23.22     20.00
    7.1267     25.55     27.00    -22.95     20.00
    7.1368     25.66     27.01    -22.85     20.00
    7.1470     24.96     27.02    -23.56     20.00
    7.1572     25.74     27.03    -22.79     20.00
    7.1673     25.80     27.04    -22.74     20.00
    7.1775     25.75     27.05    -22.80     20.00
    7.1877     25.71     27.07    -22.86     20.00
    7.1978     24.95     27.08    -23.63     20.00
    7.2080     25.80     27.09    -22.79     20.00
    7.2182     25.88     27.10    -22.72     20.00
    7.2283     25.01     27.11    -23.60     20.00
    7.2385     25.43     27.12    -23.19     20.00
    7.2487     26.05     27.13    -22.58     20.00
    7.2588     26.17     27.14    -22.47     20.00
    7.2690     25.62     27.16    -23.04     20.00
    7.2791     25.30     27.17    -23.37     20.00
    7.2893     26.17     27.18    -22.51     20.00
    7.2995     25.77     27.19    -22.92     20.00
    7.3096     25.99     27.20    -22.71     20.00
    7.3198     25.74     27.21    -22.97     20.00
    7.3300     26.07     27.23    -22.66     20.00
    7.3401     25.56     27.24    -23.18     20.00
    7.3503     25.88     27.25    -22.87     20.00
    7.3605     26.45     27.26    -22.31     20.00
    7.3706     25.25     27.27    -23.52     20.00
    7.3808     25.38     27.28    -23.40     20.00
    7.3910     25.72     27.30    -23.08     20.00
    7.4011     25.55     27.31    -23.26     20.00
    7.4113     25.93     27.32    -22.89     20.00
    7.4215     26.71     27.33    -22.12     20.00
    7.4316     26.38     27.34    -22.46     20.00
    7.4418     26.20     27.36    -22.66     20.00
    7.4519     26.32     27.37    -22.55     20.00
    7.4621     26.25     27.38    -22.63     20.00
    7.4723     25.59     27.39    -23.30     20.00
    7.4824     26.14     27.40    -22.76     20.00
    7.4926     26.66     27.42    -22.26     20.00
    7.5028     26.02     27.43    -22.91     20.00
    7.5129     26.68     27.44    -22.26     20.00
    7.5231     26.41     27.45    -22.54     20.00
    7.5333     27.00     27.47    -21.97     20.00
    7.5434     26.37     27.48    -22.61     20.00
    7.5536     27.04     27.49    -21.95     20.00
    7.5638     25.96     27.50    -23.04     20.00
    7.5739     27.02     27.52    -22.00     20.00
    7.5841     26.59     27.53    -22.44     20.00
    7.5942     26.58     27.54    -22.46     20.00
    7.6044     25.93     27.55    -23.12     20.00
    7.6146     27.03     27.57    -22.04     20.00
    7.6247     26.64     27.58    -22.44     20.00
    7.6349     26.75     27.59    -22.34     20.00
    7.6451     27.70     27.60    -21.40     20.00
    7.6552     27.02     27.62    -22.10     20.00
    7.6654     26.97     27.63    -22.16     20.00
    7.6756     26.51     27.64    -22.63     20.00
    7.6857     26.59     27.66    -22.57     20.00
    7.6959     26.43     27.67    -22.74     20.00
    7.7061     26.45     27.68    -22.73     20.00
    7.7162     27.30     27.69    -21.89     20.00
    7.7264     26.16     27.71    -23.05     20.00
    7.7365     26.65     27.72    -22.57     20.00
    7.7467     26.77     27.73    -22.46     20.00
    7.7569     26.52     27.75    -22.73     20.00
    7.7670     26.88     27.76    -22.38     20.00
    7.7772     27.35     27.77    -21.92     20.00
    7.7874     26.54     27.79    -22.75     20.00
    7.7975     27.33     27.80    -21.97     20.00
    7.8077     27.97     27.81    -21.34     20.00
    7.8179     27.04     27.83    -22.29     20.00
    7.8280     27.16     27.84    -22.18     20.00
    7.8382     27.19     27.85    -22.16     20.00
    7.8484     26.77     27.87    -22.60     20.00
    7.8585     27.74     27.88    -21.64     20.00
    7.8687     27.35     27.89    -22.04     20.00
    7.8789     27.37     27.91    -22.04     20.00
    7.8890     27.32     27.92    -22.10     20.00
    7.8992     27.65     27.94    -21.79     20.00
    7.9093     27.63     27.95    -21.82     20.00
    7.9195     27.41     27.96    -22.05     20.00
    7.9297     27.34     27.98    -22.14     20.00
    7.9398     28.26     27.99    -21.23     20.00
    7.9500     27.35     28.01    -22.16     20.00
    7.9602     27.69     28.02    -21.83     20.00
    7.9703     27.77     28.03    -21.76     20.00
    7.9805     27.76     28.05    -21.79     20.00
    7.9907     27.91     28.06    -21.65     20.00
    8.0008     27.80     28.08    -21.78     20.00
    8.0110     27.66     28.09    -21.93     20.00
    8.0212     28.15     28.10    -21.45     20.00
    8.0313     26.78     28.12    -22.84     20.00
    8.0415     28.94     28.13    -20.69     20.00
    8.0516     27.99     28.15    -21.66     20.00
    8.0618     27.70     28.16    -21.96     20.00
    8.0720     28.38     28.18    -21.30     20.00
    8.0821     28.32     28.19    -21.37     20.00
    8.0923     27.42     28.21    -22.29     20.00
    8.1025     27.01     28.22    -22.71     20.00
    8.1126     28.15     28.23    -21.58     20.00
    8.1228     28.21     28.25    -21.54     20.00
    8.1330     28.06     28.26    -21.70     20.00
    8.1431     28.38     28.28    -21.40     20.00
    8.1533     28.29     28.29    -21.50     20.00
    8.1635     28.35     28.31    -21.46     20.00
    8.1736     27.70     28.32    -22.12     20.00
    8.1838     27.59     28.34    -22.25     20.00
    8.1940     27.45     28.35    -22.40     20.00
    8.2041     28.77     28.37    -21.10     20.00
    8.2143     28.01     28.38    -21.87     20.00
    8.2244     27.61     28.40    -22.29     20.00
    8.2346     28.60     28.41    -21.31     20.00
    8.2448     27.98     28.43    -21.95     20.00
    8.2549     28.25     28.44    -21.69     20.00
    8.2651     28.35     28.46    -21.61     20.00
    8.2753     27.74     28.48    -22.24     20.00
    8.2854     28.27     28.49    -21.72     20.00
    8.2956     28.13     28.51    -21.88     20.00
    8.3058     28.51     28.52    -21.51     20.00
    8.3159     28.76     28.54    -21.28     20.00
    8.3261     28.34     28.55    -21.71     20.00
    8.3363     28.11     28.57    -21.96     20.00
    8.3464     28.76     28.58    -21.32     20.00
    8.3566     28.60     28.60    -21.50     20.00
    8.3667     27.72     28.62    -22.40     20.00
    8.3769     28.65     28.63    -21.48     20.00
    8.3871     28.71     28.65    -21.44     20.00
    8.3972     28.31     28.66    -21.85     20.00
    8.4074     28.28     28.68    -21.90     20.00
    8.4176     28.62     28.70    -21.58     20.00
    8.4277     28.70     28.71    -21.51     20.00
    8.4379     28.51     28.73    -21.72     20.00
    8.4481     28.20     28.75    -22.05     20.00
    8.4582     28.16     28.76    -22.10     20.00
    8.4684     28.98     28.78    -21.30     20.00
    8.4786     28.76     28.79    -21.53     20.00
    8.4887     29.35     28.81    -20.96     20.00
    8.4989     29.44     28.83    -20.89     20.00
    8.5091     29.27     28.84    -21.07     20.00
    8.5192     28.73     28.86    -21.63     20.00
    8.5294     29.20     28.88    -21.18     20.00
    8.5395     29.53     28.89    -20.86     20.00
    8.5497     28.54     28.91    -21.87     20.00
    8.5599     29.43     28.93    -21.00     20.00
    8.5700     29.25     28.94    -21.19     20.00
    8.5802     28.99     28.96    -21.47     20.00
    8.5904     29.09     28.98    -21.39     20.00
    8.6005     29.04     29.00    -21.46     20.00
    8.6107     29.76     29.01    -20.75     20.00
    8.6209     28.35     29.03    -22.18     20.00
    8.6310     28.80     29.05    -21.75     20.00
    8.6412     29.44     29.06    -21.12     20.00
    8.6514     29.84     29.08    -20.74     20.00
    8.6615     29.32     29.10    -21.28     20.00
    8.6717     30.34     29.12    -20.28     20.00
    8.6818     29.77     29.13    -20.86     20.00
    8.6920     29.54     29.15    -21.11     20.00
    8.7022     29.04     29.17    -21.63     20.00
    8.7123     30.09     29.19    -20.60     20.00
    8.7225     30.26     29.21    -20.45     20.00
    8.7327     29.97     29.22    -20.75     20.00
    8.7428     29.65     29.24    -21.09     20.00
    8.7530     29.76     29.26    -21.00     20.00
    8.7632     30.24     29.28    -20.54     20.00
    8.7733     30.53     29.30    -20.27     20.00
    8.7835     30.12     29.31    -20.69     20.00
    8.7937     29.71     29.33    -21.12     20.00
    8.8038     29.52     29.35    -21.33     20.00
    8.8140     29.78     29.37    -21.09     20.00
    8.8242     29.22     29.39    -21.67     20.00
    8.8343     30.17     29.41    -20.74     20.00
    8.8445     29.62     29.42    -21.30     20.00
    8.8546     29.53     29.44    -21.41     20.00
    8.8648     29.98     29.46    -20.98     20.00
    8.8750     29.18     29.48    -21.80     20.00
    8.8851     29.56     29.50    -21.44     20.00
    8.8953     30.26     29.52    -20.76     20.00
    8.9055     31.20     29.54    -19.84     20.00
    8.9156     29.45     29.56    -21.61     20.00
    8.9258     30.37     29.57    -20.70     20.00
    8.9360     30.00     29.59    -21.09     20.00
    8.9461     30.32     29.61    -20.79     20.00
    8.9563     29.87     29.63    -21.26     20.00
    8.9665     30.93     29.65    -20.22     20.00
    8.9766     29.81     29.67    -21.36     20.00
    8.9868     30.40     29.69    -20.79     20.00
    8.9969     30.83     29.71    -20.38     20.00
    9.0071     29.73     29.73    -21.50     20.00
    9.0173     31.23     29.75    -20.02     20.00
    9.0274     31.32     29.77    -19.95     20.00
    9.0376     30.74     29.79    -20.55     20.00
    9.0478     30.84     29.81    -20.47     20.00
    9.0579     30.18     29.83    -21.15     20.00
    9.0681     30.30     29.85    -21.05     20.00
    9.0783     30.73     29.87    -20.64     20.00
    9.0884     30.53     29.89    -20.86     20.00
    9.0986     30.21     29.91    -21.20     20.00
    9.1088     31.32     29.93    -20.11     20.00
    9.1189     31.71     29.95    -19.74     20.00
    9.1291     30.81     29.97    -20.66     20.00
    9.1393     31.36     29.99    -20.13     20.00
    9.1494     31.90     30.01    -19.61     20.00
    9.1596     30.20     30.03    -21.33     20.00
    9.1697     30.65     30.05    -20.90     20.00
    9.1799     32.23     30.07    -19.34     20.00
    9.1901     30.29     30.09    -21.30     20.00
    9.2002     31.08     30.12    -20.54     20.00
    9.2104     31.65     30.14    -19.99     20.00
    9.2206     30.13     30.16    -21.53     20.00
    9.2307     31.41     30.18    -20.27     20.00
    9.2409     30.76     30.20    -20.94     20.00
    9.2511     30.03     30.22    -21.69     20.00
    9.2612     31.20     30.24    -20.54     20.00
    9.2714     30.85     30.26    -20.91     20.00
    9.2816     31.75     30.29    -20.04     20.00
    9.2917     31.00     30.31    -20.81     20.00
    9.3019     31.32     30.33    -20.51     20.00
    9.3120     30.59     30.35    -21.26     20.00
    9.3222     31.64     30.37    -20.23     20.00
    9.3324     31.59     30.39    -20.30     20.00
    9.3425     30.70     30.42    -21.22     20.00
    9.3527     30.87     30.44    -21.07     20.00
    9.3629     31.56     30.46    -20.40     20.00
    9.3730     30.04     30.48    -21.94     20.00
    9.3832     32.05     30.51    -19.96     20.00
    9.3934     31.31     30.53    -20.72     20.00
    9.4035     31.27     30.55    -20.78     20.00
    9.4137     31.16     30.57    -20.91     20.00
    9.4239     31.64     30.60    -20.46     20.00
    9.4340     31.51     30.62    -20.61     20.00
    9.4442     31.45     30.64    -20.69     20.00
    9.4544     32.80     30.66    -19.36     20.00
    9.4645     31.67     30.69    -20.52     20.00
    9.4747     32.04     30.71    -20.17     20.00
    9.4848     31.60     30.73    -20.63     20.00
    9.4950     31.67     30.76    -20.59     20.00
    9.5052     31.80     30.78    -20.48     20.00
    9.5153     30.83     30.80    -21.47     20.00
    9.5255     31.68     30.83    -20.65     20.00
    9.5357     31.82     30.85    -20.53     20.00
    9.5458     32.10     30.87    -20.27     20.00
    9.5560     31.53     30.90    -20.87     20.00
    9.5662     32.17     30.92    -20.25     20.00
    9.5763     31.65     30.94    -20.79     20.00
    9.5865     32.61     30.97    -19.86     20.00
    9.5967     32.48     30.99    -20.01     20.00
    9.6068     31.77     31.02    -20.75     20.00
    9.6170     31.82     31.04    -20.72     20.00
    9.6271     31.70     31.07    -20.87     20.00
    9.6373     32.05     31.09    -20.54     20.00
    9.6475     31.70     31.11    -20.91     20.00
    9.6576     32.25     31.14    -20.39     20.00
    9.6678     32.79     31.16    -19.87     20.00
    9.6780     31.98     31.19    -20.71     20.00
    9.6881     31.96     31.21    -20.75     20.00
    9.6983     31.51     31.24    -21.23     20.00
    9.7085     31.61     31.26    -21.15     20.00
    9.7186     32.43     31.29    -20.36     20.00
    9.7288     31.73     31.31    -21.08     20.00
    9.7390     32.23     31.34    -20.61     20.00
    9.7491     32.53     31.37    -20.34     20.00
    9.7593     31.92     31.39    -20.97     20.00
    9.7694     32.24     31.42    -20.68     20.00
    9.7796     33.28     31.44    -19.66     20.00
    9.7898     32.28     31.47    -20.69     20.00
    9.7999     32.28     31.49    -20.71     20.00
    9.8101     32.93     31.52    -20.09     20.00
    9.8203     31.98     31.55    -21.07     20.00
    9.8304     31.91     31.57    -21.16     20.00
    9.8406     33.52     31.60    -19.58     20.00
    9.8508     32.07     31.62    -21.05     20.00
    9.8609     31.29     31.65    -21.86     20.00
    9.8711     32.72     31.68    -20.46     20.00
    9.8813     32.16     31.70    -21.04     20.00
    9.8914     32.45     31.73    -20.78     20.00
    9.9016     33.48     31.76    -19.78     20.00
    9.9118     33.61     31.79    -19.68     20.00
    9.9219     32.73     31.81    -20.58     20.00
    9.9321     33.02     31.84    -20.32     20.00
    9.9422     33.66     31.87    -19.71     20.00
    9.9524     32.75     31.89    -20.64     20.00
    9.9626     33.35     31.92    -20.07     20.00
    9.9727     32.64     31.95    -20.81     20.00
    9.9829     32.91     31.98    -20.57     20.00
    9.9931     32.18     32.00    -21.32     20.00
   10.0032     32.40     32.03    -21.13     20.00
   10.0134     33.02     32.06    -20.54     20.00
   10.0236     32.57     32.09    -21.02     20.00
   10.0337     31.95     32.12    -21.67     20.00
   10.0439     33.51     32.15    -20.14     20.00
   10.0541     33.55     32.17    -20.12     20.00
   10.0642     33.34     32.20    -20.36     20.00
   10.0744     33.84     32.23    -19.89     20.00
   10.0845     33.52     32.26    -20.24     20.00
   10.0947     34.07     32.29    -19.72     20.00
   10.1049     33.01     32.32    -20.81     20.00
   10.1150     34.20     32.35    -19.65     20.00
   10.1252     33.12     32.38    -20.76     20.00
   10.1354     33.81     32.40    -20.09     20.00
   10.1455     33.95     32.43    -19.98     20.00
   10.1557     33.59     32.46    -20.37     20.00
   10.1659     33.07     32.49    -20.92     20.00
   10.1760     34.51     32.52    -19.51     20.00
   10.1862     33.58     32.55    -20.47     20.00
   10.1964     33.51     32.58    -20.57     20.00
   10.2065     34.18     32.61    -19.93     20.00
   10.2167     33.91     32.64    -20.23     20.00
   10.2269     33.29     32.67    -20.88     20.00
   10.2370     34.09     32.70    -20.11     20.00
   10.2472     33.72     32.73    -20.51     20.00
   10.2573     33.55     32.76    -20.71     20.00
   10.2675     33.26     32.80    -21.04     20.00
   10.2777     33.50     32.83    -20.83     20.00
   10.2878     34.04     32.86    -20.32     20.00
   10.2980     33.52     32.89    -20.87     20.00
   10.3082     33.79     32.92    -20.63     20.00
   10.3183     34.45     32.95    -20.00     20.00
   10.3285     34.50     32.98    -19.98     20.00
   10.3387     33.75     33.01    -20.76     20.00
   10.3488     33.45     33.05    -21.10     20.00
   10.3590     33.55     33.08    -21.03     20.00
   10.3692     33.52     33.11    -21.09     20.00
   10.3793     33.40     33.14    -21.24     20.00
   10.3895     33.20     33.17    -21.47     20.00
   10.3996     34.23     33.21    -20.48     20.00
   10.4098     33.97     33.24    -20.77     20.00
   10.4200     34.96     33.27    -19.81     20.00
   10.4301     33.38     33.30    -21.42     20.00
   10.4403     33.75     33.34    -21.09     20.00
   10.4505     35.37     33.37    -19.50     20.00
   10.4606     34.10     33.40    -20.80     20.00
   10.4708     34.73     33.44    -20.21     20.00
   10.4810     34.16     33.47    -20.81     20.00
   10.4911     33.79     33.50    -21.21     20.00
   10.5013     33.83     33.54    -21.21     20.00
   10.5115     34.30     33.57    -20.77     20.00
   10.5216     34.75     33.60    -20.35     20.00
   10.5318     34.57     33.64    -20.57     20.00
   10.5420     34.29     33.67    -20.88     20.00
   10.5521     34.99     33.70    -20.21     20.00
   10.5623     34.90     33.74    -20.34     20.00
   10.5724     34.58     33.77    -20.69     20.00
   10.5826     35.18     33.81    -20.13     20.00
   10.5928     34.80     33.84    -20.54     20.00
   10.6029     34.69     33.88    -20.69     20.00
   10.6131     34.43     33.91    -20.98     20.00
   10.6233     35.43     33.95    -20.02     20.00
   10.6334     34.57     33.98    -20.91     20.00
   10.6436     35.60     34.02    -19.92     20.00
   10.6538     34.48     34.05    -21.07     20.00
   10.6639     34.43     34.09    -21.16     20.00
   10.6741     34.07     34.13    -21.56     20.00
   10.6843     35.85     34.16    -19.81     20.00
   10.6944     34.99     34.20    -20.71     20.00
   10.7046     34.69     34.23    -21.04     20.00
   10.7147     35.56     34.27    -20.21     20.00
   10.7249     35.31     34.31    -20.50     20.00
   10.7351     34.46     34.34    -21.38     20.00
   10.7452     34.87     34.38    -21.01     20.00
   10.7554     35.00     34.42    -20.92     20.00
   10.7656     35.52     34.45    -20.43     20.00
   10.7757     34.08     34.49    -21.91     20.00
   10.7859     34.88     34.53    -21.15     20.00
   10.7961     34.93     34.56    -21.13     20.00
   10.8062     35.19     34.60    -20.91     20.00
   10.8164     35.82     34.64    -20.32     20.00
   10.8266     35.51     34.68    -20.67     20.00
   10.8367     36.41     34.72    -19.81     20.00
   10.8469     36.22     34.75    -20.03     20.00
   10.8571     36.18     34.79    -20.11     20.00
   10.8672     35.62     34.83    -20.71     20.00
   10.8774     36.07     34.87    -20.30     20.00
   10.8875     35.05     34.91    -21.36     20.00
   10.8977     34.78     34.95    -21.67     20.00
   10.9079     35.90     34.99    -20.59     20.00
   10.9180     35.00     35.02    -21.52     20.00
   10.9282     35.75     35.06    -20.81     20.00
   10.9384     36.41     35.10    -20.19     20.00
   10.9485     35.40     35.14    -21.24     20.00
   10.9587     36.21     35.18    -20.47     20.00
   10.9689     35.59     35.22    -21.13     20.00
   10.9790     36.21     35.26    -20.55     20.00
   10.9892     36.71     35.30    -20.09     20.00
   10.9994     35.88     35.34    -20.96     20.00
   11.0095     36.53     35.38    -20.35     20.00
   11.0197     35.46     35.42    -21.46     20.00
   11.0298     36.94     35.46    -20.02     20.00
   11.0400     35.64     35.51    -21.37     20.00
   11.0502     35.21     35.55    -21.84     20.00
   11.0603     35.95     35.59    -21.14     20.00
   11.0705     36.29     35.63    -20.84     20.00
   11.0807     35.90     35.67    -21.27     20.00
   11.0908     36.38     35.71    -20.83     20.00
   11.1010     36.42     35.75    -20.83     20.00
   11.1112     36.51     35.80    -20.79     20.00
   11.1213     36.64     35.84    -20.70     20.00
   11.1315     36.31     35.88    -21.07     20.00
   11.1417     35.99     35.92    -21.43     20.00
   11.1518     36.75     35.97    -20.72     20.00
   11.1620     36.62     36.01    -20.89     20.00
   11.1722     36.90     36.05    -20.65     20.00
   11.1823     36.70     36.09    -20.89     20.00
   11.1925     36.26     36.14    -21.38     20.00
   11.2026     37.37     36.18    -20.31     20.00
   11.2128     36.91     36.22    -20.81     20.00
   11.2230     36.31     36.27    -21.46     20.00
   11.2331     36.77     36.31    -21.04     20.00
   11.2433     37.18     36.36    -20.68     20.00
   11.2535     35.73     36.40    -22.17     20.00
   11.2636     36.66     36.44    -21.28     20.00
   11.2738     37.43     36.49    -20.56     20.00
   11.2840     36.23     36.53    -21.80     20.00
   11.2941     37.29     36.58    -20.79     20.00
   11.3043     37.51     36.62    -20.61     20.00
   11.3145     36.25     36.67    -21.92     20.00
   11.3246     37.94     36.72    -20.28     20.00
   11.3348     37.45     36.76    -20.81     20.00
   11.3449     37.70     36.81    -20.61     20.00
   11.3551     36.88     36.85    -21.47     20.00
   11.3653     36.17     36.90    -22.23     20.00
   11.3754     36.71     36.94    -21.73     20.00
   11.3856     37.71     36.99    -20.78     20.00
   11.3958     37.20     37.04    -21.34     20.00
   11.4059     37.04     37.08    -21.54     20.00
   11.4161     37.52     37.13    -21.11     20.00
   11.4263     38.01     37.18    -20.67     20.00
   11.4364     37.49     37.23    -21.24     20.00
   11.4466     37.26     37.27    -21.51     20.00
   11.4568     37.84     37.32    -20.98     20.00
   11.4669     38.43     37.37    -20.44     20.00
   11.4771     38.98     37.42    -19.94     20.00
   11.4873     39.05     37.47    -19.92     20.00
   11.4974     37.85     37.51    -21.16     20.00
   11.5076     38.49     37.56    -20.57     20.00
   11.5177     37.19     37.61    -21.92     20.00
   11.5279     37.83     37.66    -21.33     20.00
   11.5381     38.18     37.71    -21.03     20.00
   11.5482     37.73     37.76    -21.53     20.00
   11.5584     37.49     37.81    -21.82     20.00
   11.5686     38.56     37.86    -20.80     20.00
   11.5787     38.27     37.91    -21.14     20.00
   11.5889     37.45     37.96    -22.01     20.00
   11.5991     37.84     38.01    -21.67     20.00
   11.6092     37.99     38.06    -21.57     20.00
   11.6194     38.00     38.11    -21.61     20.00
   11.6296     38.52     38.16    -21.14     20.00
   11.6397     38.68     38.21    -21.03     20.00
   11.6499     38.28     38.26    -21.48     20.00
   11.6600     38.97     38.31    -20.84     20.00
   11.6702     37.34     38.36    -22.52     20.00
   11.6804     39.05     38.42    -20.87     20.00
   11.6905     38.34     38.47    -21.63     20.00
   11.7007     38.07     38.52    -21.95     20.00
   11.7109     38.01     38.57    -22.06     20.00
   11.7210     38.35     38.62    -21.77     20.00
   11.7312     38.71     38.68    -21.47     20.00
   11.7414     38.57     38.73    -21.66     20.00
   11.7515     38.57     38.78    -21.71     20.00
   11.7617     37.75     38.84    -22.59     20.00
   11.7719     39.43     38.89    -20.96     20.00
   11.7820     38.04     38.94    -22.40     20.00
   11.7922     38.49     39.00    -22.01     20.00
   11.8023     39.78     39.05    -20.77     20.00
   11.8125     38.95     39.11    -21.66     20.00
   11.8227     39.75     39.16    -20.91     20.00
   11.8328     38.96     39.21    -21.75     20.00
   11.8430     39.60     39.27    -21.17     20.00
   11.8532     38.25     39.32    -22.57     20.00
   11.8633     39.41     39.38    -21.47     20.00
   11.8735     39.01     39.43    -21.92     20.00
   11.8837     39.59     39.49    -21.40     20.00
   11.8938     38.75     39.55    -22.30     20.00
   11.9040     39.63     39.60    -21.47     20.00
   11.9142     39.41     39.66    -21.75     20.00
   11.9243     39.30     39.71    -21.91     20.00
   11.9345     39.52     39.77    -21.75     20.00
   11.9447     39.43     39.83    -21.90     20.00
   11.9548     39.45     39.88    -21.93     20.00
   11.9650     39.30     39.94    -22.14     20.00
   11.9751     38.54     40.00    -22.96     20.00
   11.9853     40.91     40.06    -20.65     20.00
   11.9955     40.85     40.12    -20.77     20.00
   12.0056     39.51     40.17    -22.16     20.00
   12.0158     40.10     40.23    -21.63     20.00
   12.0260     39.62     40.29    -22.17     20.00
   12.0361     39.51     40.35    -22.34     20.00
   12.0463     39.35     40.41    -22.56     20.00
   12.0565     40.60     40.47    -21.37     20.00
   12.0666     39.88     40.53    -22.15     20.00
   12.0768     39.49     40.59    -22.60     20.00
   12.0870     41.12     40.65    -21.03     20.00
   12.0971     40.47     40.71    -21.74     20.00
   12.1073     40.49     40.77    -21.78     20.00
   12.1174     40.76     40.83    -21.57     20.00
   12.1276     41.19     40.89    -21.20     20.00
   12.1378     41.70     40.95    -20.75     20.00
   12.1479     41.18     41.01    -21.33     20.00
   12.1581     40.60     41.07    -21.97     20.00
   12.1683     40.79     41.13    -21.84     20.00
   12.1784     41.24     41.19    -21.45     20.00
   12.1886     40.30     41.25    -22.45     20.00
   12.1988     40.99     41.32    -21.83     20.00
   12.2089     41.11     41.38    -21.77     20.00
   12.2191     40.75     41.44    -22.19     20.00
   12.2293     40.76     41.50    -22.24     20.00
   12.2394     41.35     41.57    -21.72     20.00
   12.2496     40.77     41.63    -22.36     20.00
   12.2598     41.29     41.69    -21.90     20.00
   12.2699     40.94     41.76    -22.32     20.00
   12.2801     41.54     41.82    -21.78     20.00
   12.2902     42.47     41.88    -20.91     20.00
   12.3004     41.70     41.95    -21.75     20.00
   12.3106     41.76     42.01    -21.75     20.00
   12.3207     42.17     42.08    -21.41     20.00
   12.3309     42.30     42.14    -21.34     20.00
   12.3411     41.62     42.21    -22.09     20.00
   12.3512     41.36     42.27    -22.41     20.00
   12.3614     41.22     42.34    -22.62     20.00
   12.3716     42.20     42.41    -21.71     20.00
   12.3817     41.59     42.47    -22.38     20.00
   12.3919     41.88     42.54    -22.16     20.00
   12.4021     41.82     42.61    -22.29     20.00
   12.4122     40.16     42.67    -24.01     20.00
   12.4224     42.09     42.74    -22.15     20.00
   12.4325     42.71     42.81    -21.60     20.00
   12.4427     41.93     42.87    -22.44     20.00
   12.4529     42.75     42.94    -21.69     20.00
   12.4630     41.77     43.01    -22.74     20.00
   12.4732     41.98     43.08    -22.60     20.00
   12.4834     42.76     43.15    -21.89     20.00
   12.4935     43.16     43.21    -21.55     20.00
   12.5037     42.54     43.28    -22.24     20.00
   12.5139     42.54     43.35    -22.31     20.00
   12.5240     43.51     43.42    -21.41     20.00
   12.5342     43.32     43.49    -21.67     20.00
   12.5444     43.23     43.56    -21.83     20.00
   12.5545     43.65     43.63    -21.48     20.00
   12.5647     43.91     43.70    -21.29     20.00
   12.5749     42.91     43.77    -22.36     20.00
   12.5850     42.49     43.84    -22.85     20.00
   12.5952     42.67     43.92    -22.75     20.00
   12.6053     44.68     43.99    -20.81     20.00
   12.6155     43.84     44.06    -21.72     20.00
   12.6257     43.45     44.13    -22.18     20.00
   12.6358     44.77     44.20    -20.93     20.00
   12.6460     42.71     44.27    -23.06     20.00
   12.6562     43.70     44.35    -22.15     20.00
   12.6663     44.02     44.42    -21.90     20.00
   12.6765     43.41     44.49    -22.58     20.00
   12.6867     43.95     44.57    -22.12     20.00
   12.6968     43.51     44.64    -22.63     20.00
   12.7070     43.77     44.71    -22.44     20.00
   12.7172     43.51     44.79    -22.78     20.00
   12.7273     44.04     44.86    -22.32     20.00
   12.7375     44.43     44.94    -22.01     20.00
   12.7476     44.76     45.01    -21.75     20.00
   12.7578     44.25     45.09    -22.34     20.00
   12.7680     44.32     45.16    -22.34     20.00
   12.7781     44.98     45.24    -21.76     20.00
   12.7883     44.59     45.31    -22.22     20.00
   12.7985     44.71     45.39    -22.18     20.00
   12.8086     44.70     45.46    -22.26     20.00
   12.8188     44.57     45.54    -22.47     20.00
   12.8290     44.11     45.62    -23.01     20.00
   12.8391     44.31     45.69    -22.88     20.00
   12.8493     44.40     45.77    -22.87     20.00
   12.8595     45.21     45.85    -22.14     20.00
   12.8696     45.81     45.93    -21.62     20.00
   12.8798     45.14     46.01    -22.37     20.00
   12.8900     45.71     46.08    -21.87     20.00
   12.9001     45.46     46.16    -22.20     20.00
   12.9103     45.94     46.24    -21.80     20.00
   12.9204     45.29     46.32    -22.53     20.00
   12.9306     45.71     46.40    -22.19     20.00
   12.9408     45.44     46.48    -22.54     20.00
   12.9509     45.90     46.56    -22.16     20.00
   12.9611     44.74     46.64    -23.40     20.00
   12.9713     46.37     46.72    -21.85     20.00
   12.9814     46.49     46.80    -21.81     20.00
   12.9916     45.46     46.88    -22.92     20.00
   13.0018     46.12     46.96    -22.34     20.00
   13.0119     46.62     47.04    -21.92     20.00
   13.0221     46.42     47.13    -22.21     20.00
   13.0323     46.03     47.21    -22.68     20.00
   13.0424     46.10     47.29    -22.69     20.00
   13.0526     46.48     47.37    -22.39     20.00
   13.0627     45.29     47.45    -23.66     20.00
   13.0729     46.25     47.54    -22.79     20.00
   13.0831     47.40     47.62    -21.72     20.00
   13.0932     46.81     47.70    -22.39     20.00
   13.1034     47.73     47.79    -21.56     20.00
   13.1136     47.40     47.87    -21.97     20.00
   13.1237     47.00     47.96    -22.46     20.00
   13.1339     47.56     48.04    -21.98     20.00
   13.1441     47.69     48.13    -21.94     20.00
   13.1542     46.71     48.21    -23.00     20.00
   13.1644     46.34     48.30    -23.46     20.00
   13.1746     47.07     48.38    -22.81     20.00
   13.1847     46.69     48.47    -23.28     20.00
   13.1949     48.93     48.55    -21.12     20.00
   13.2051     47.28     48.64    -22.86     20.00
   13.2152     48.42     48.73    -21.81     20.00
   13.2254     48.30     48.82    -22.02     20.00
   13.2355     48.07     48.90    -22.33     20.00
   13.2457     47.60     48.99    -22.89     20.00
   13.2559     46.99     49.08    -23.59     20.00
   13.2660     48.25     49.17    -22.42     20.00
   13.2762     47.74     49.25    -23.01     20.00
   13.2864     47.80     49.34    -23.04     20.00
   13.2965     48.07     49.43    -22.86     20.00
   13.3067     48.09     49.52    -22.93     20.00
   13.3169     49.79     49.61    -21.32     20.00
   13.3270     49.82     49.70    -21.38     20.00
   13.3372     48.51     49.79    -22.78     20.00
   13.3474     48.30     49.88    -23.08     20.00
   13.3575     49.40     49.97    -22.07     20.00
   13.3677     48.09     50.06    -23.47     20.00
   13.3778     49.78     50.15    -21.87     20.00
   13.3880     49.45     50.25    -22.30     20.00
   13.3982     49.45     50.34    -22.39     20.00
   13.4083     49.32     50.43    -22.61     20.00
   13.4185     48.49     50.52    -23.53     20.00
   13.4287     49.15     50.61    -22.96     20.00
   13.4388     49.80     50.71    -22.41     20.00
   13.4490     49.37     50.80    -22.93     20.00
   13.4592     50.10     50.89    -22.29     20.00
   13.4693     49.48     50.99    -23.01     20.00
   13.4795     49.26     51.08    -23.32     20.00
   13.4897     49.55     51.18    -23.13     20.00
   13.4998     49.59     51.27    -23.18     20.00
   13.5100     50.33     51.37    -22.54     20.00
   13.5201     50.76     51.46    -22.20     20.00
   13.5303     49.77     51.56    -23.29     20.00
   13.5405     50.04     51.65    -23.11     20.00
   13.5506     49.90     51.75    -23.35     20.00
   13.5608     50.77     51.84    -22.57     20.00
   13.5710     50.50     51.94    -22.94     20.00
   13.5811     50.82     52.04    -22.72     20.00
   13.5913     49.62     52.13    -24.01     20.00
   13.6015     51.02     52.23    -22.71     20.00
   13.6116     51.43     52.33    -22.40     20.00
   13.6218     51.66     52.43    -22.27     20.00
   13.6320     51.90     52.53    -22.13     20.00
   13.6421     51.32     52.62    -22.80     20.00
   13.6523     51.47     52.72    -22.75     20.00
   13.6625     50.76     52.82    -23.56     20.00
   13.6726     52.20     52.92    -22.22     20.00
   13.6828     51.01     53.02    -23.51     20.00
   13.6929     51.05     53.12    -23.57     20.00
   13.7031     52.23     53.22    -22.49     20.00
   13.7133     53.58     53.32    -21.24     20.00
   13.7234     52.34     53.42    -22.58     20.00
   13.7336     52.17     53.53    -22.86     20.00
   13.7438     52.15     53.63    -22.98     20.00
   13.7539     52.25     53.73    -22.98     20.00
   13.7641     53.12     53.83    -22.21     20.00
   13.7743     51.96     53.93    -23.47     20.00
   13.7844     52.74     54.04    -22.80     20.00
   13.7946     52.10     54.14    -23.54     20.00
   13.8048     53.15     54.24    -22.59     20.00
   13.8149     52.76     54.35    -23.09     20.00
   13.8251     53.12     54.45    -22.83     20.00
   13.8352     51.23     54.55    -24.82     20.00
   13.8454     53.10     54.66    -23.06     20.00
   13.8556     53.66     54.76    -22.60     20.00
   13.8657     53.45     54.87    -22.92     20.00
   13.8759     52.98     54.97    -23.49     20.00
   13.8861     53.98     55.08    -22.60     20.00
   13.8962     53.83     55.19    -22.86     20.00
   13.9064     53.41     55.29    -23.38     20.00
   13.9166     54.02     55.40    -22.88     20.00
   13.9267     54.48     55.51    -22.53     20.00
   13.9369     54.16     55.61    -22.95     20.00
   13.9471     54.46     55.72    -22.76     20.00
   13.9572     54.55     55.83    -22.78     20.00
   13.9674     54.74     55.94    -22.70     20.00
   13.9776     55.07     56.05    -22.48     20.00
   13.9877     54.93     56.15    -22.72     20.00
   13.9979     55.01     56.26    -22.75     20.00
   14.0080     55.09     56.37    -22.78     20.00
   14.0182     54.36     56.48    -23.62     20.00
   14.0284     54.65     56.59    -23.44     20.00
   14.0385     56.70     56.70    -21.50     20.00
   14.0487     55.92     56.81    -22.39     20.00
   14.0589     55.21     56.92    -23.21     20.00
   14.0690     55.73     57.03    -22.80     20.00
   14.0792     55.85     57.15    -22.80     20.00
   14.0894     55.48     57.26    -23.28     20.00
   14.0995     55.79     57.37    -23.08     20.00
   14.1097     55.95     57.48    -23.03     20.00
   14.1199     56.07     57.59    -23.02     20.00
   14.1300     55.79     57.71    -23.42     20.00
   14.1402     56.57     57.82    -22.75     20.00
   14.1503     57.20     57.93    -22.23     20.00
   14.1605     55.49     58.05    -24.06     20.00
   14.1707     57.99     58.16    -21.67     20.00
   14.1808     56.08     58.28    -23.70     20.00
   14.1910     57.95     58.39    -21.94     20.00
   14.2012     55.91     58.51    -24.10     20.00
   14.2113     57.09     58.62    -23.03     20.00
   14.2215     56.87     58.74    -23.37     20.00
   14.2317     57.79     58.85    -22.56     20.00
   14.2418     57.20     58.97    -23.27     20.00
   14.2520     58.49     59.09    -22.10     20.00
   14.2622     57.52     59.20    -23.18     20.00
   14.2723     57.79     59.32    -23.03     20.00
   14.2825     58.37     59.44    -22.57     20.00
   14.2927     58.31     59.56    -22.75     20.00
   14.3028     58.69     59.67    -22.48     20.00
   14.3130     59.06     59.79    -22.23     20.00
   14.3231     58.01     59.91    -23.40     20.00
   14.3333     59.01     60.03    -22.52     20.00
   14.3435     58.40     60.15    -23.25     20.00
   14.3536     58.53     60.27    -23.24     20.00
   14.3638     58.88     60.39    -23.01     20.00
   14.3740     58.90     60.51    -23.11     20.00
   14.3841     58.79     60.63    -23.34     20.00
   14.3943     59.37     60.75    -22.88     20.00
   14.4045     58.99     60.87    -23.38     20.00
   14.4146     60.70     60.99    -21.79     20.00
   14.4248     58.63     61.12    -23.99     20.00
   14.4350     60.49     61.24    -22.25     20.00
   14.4451     58.77     61.36    -24.09     20.00
   14.4553     61.24     61.48    -21.74     20.00
   14.4654     60.32     61.61    -22.79     20.00
   14.4756     59.65     61.73    -23.58     20.00
   14.4858     61.07     61.85    -22.28     20.00
   14.4959     60.98     61.98    -22.50     20.00
   14.5061     61.37     62.10    -22.23     20.00
   14.5163     61.30     62.23    -22.43     20.00
   14.5264     61.77     62.35    -22.08     20.00
   14.5366     60.98     62.48    -23.00     20.00
   14.5468     60.68     62.60    -23.42     20.00
   14.5569     62.04     62.73    -22.19     20.00
   14.5671     63.07     62.85    -21.28     20.00
   14.5773     61.18     62.98    -23.30     20.00
   14.5874     62.79     63.11    -21.82     20.00
   14.5976     62.05     63.24    -22.69     20.00
   14.6078     62.84     63.36    -22.02     20.00
   14.6179     62.99     63.49    -22.00     20.00
   14.6281     62.56     63.62    -22.56     20.00
   14.6382     62.93     63.75    -22.32     20.00
   14.6484     63.30     63.88    -22.08     20.00
   14.6586     64.21     64.00    -21.29     20.00
   14.6687     62.27     64.13    -23.36     20.00
   14.6789     63.20     64.26    -22.56     20.00
   14.6891     62.55     64.39    -23.34     20.00
   14.6992     62.74     64.52    -23.28     20.00
   14.7094     63.46     64.65    -22.69     20.00
   14.7196     61.85     64.79    -24.44     20.00
   14.7297     63.57     64.92    -22.85     20.00
   14.7399     64.35     65.05    -22.20     20.00
   14.7501     62.22     65.18    -24.46     20.00
   14.7602     64.61     65.31    -22.20     20.00
   14.7704     64.07     65.44    -22.87     20.00
   14.7805     63.91     65.58    -23.17     20.00
   14.7907     63.76     65.71    -23.45     20.00
   14.8009     65.21     65.84    -22.13     20.00
   14.8110     64.66     65.98    -22.82     20.00
   14.8212     64.75     66.11    -22.86     20.00
   14.8314     65.18     66.25    -22.57     20.00
   14.8415     64.71     66.38    -23.17     20.00
   14.8517     64.18     66.51    -23.83     20.00
   14.8619     65.90     66.65    -22.25     20.00
   14.8720     65.80     66.79    -22.49     20.00
   14.8822     65.43     66.92    -22.99     20.00
   14.8924     67.00     67.06    -21.56     20.00
   14.9025     66.62     67.19    -22.07     20.00
   14.9127     65.97     67.33    -22.86     20.00
   14.9229     67.26     67.47    -21.71     20.00
   14.9330     66.87     67.61    -22.24     20.00
   14.9432     65.23     67.74    -24.01     20.00
   14.9533     65.94     67.88    -23.44     20.00
   14.9635     66.77     68.02    -22.75     20.00
   14.9737     67.74     68.16    -21.92     20.00
   14.9838     66.69     68.30    -23.11     20.00
   14.9940     68.13     68.44    -21.81     20.00
   15.0042     68.59     68.58    -21.49     20.00
   15.0143     68.67     68.72    -21.55     20.00
   15.0245     68.29     68.86    -22.07     20.00
   15.0347     67.93     69.00    -22.57     20.00
   15.0448     67.51     69.14    -23.13     20.00
   15.0550     68.90     69.28    -21.88     20.00
   15.0652     67.99     69.42    -22.93     20.00
   15.0753     67.72     69.56    -23.34     20.00
   15.0855     68.71     69.71    -22.50     20.00
   15.0956     69.71     69.85    -21.64     20.00
   15.1058     69.09     69.99    -22.40     20.00
   15.1160     70.12     70.13    -21.51     20.00
   15.1261     69.80     70.28    -21.98     20.00
   15.1363     69.79     70.42    -22.13     20.00
   15.1465     67.99     70.56    -24.07     20.00
   15.1566     69.71     70.71    -22.50     20.00
   15.1668     70.38     70.85    -21.97     20.00
   15.1770     68.71     71.00    -23.79     20.00
   15.1871     70.15     71.14    -22.49     20.00
   15.1973     69.91     71.29    -22.88     20.00
   15.2075     71.13     71.44    -21.81     20.00
   15.2176     70.62     71.58    -22.46     20.00
   15.2278     70.59     71.73    -22.64     20.00
   15.2380     70.74     71.87    -22.63     20.00
   15.2481     70.19     72.02    -23.33     20.00
   15.2583     71.64     72.17    -22.03     20.00
   15.2684     71.60     72.32    -22.22     20.00
   15.2786     71.84     72.46    -22.12     20.00
   15.2888     71.93     72.61    -22.18     20.00
   15.2989     72.07     72.76    -22.19     20.00
   15.3091     72.61     72.91    -21.80     20.00
   15.3193     70.93     73.06    -23.63     20.00
   15.3294     71.29     73.21    -23.42     20.00
   15.3396     71.10     73.36    -23.76     20.00
   15.3498     74.30     73.51    -20.71     20.00
   15.3599     72.53     73.66    -22.63     20.00
   15.3701     71.43     73.81    -23.88     20.00
   15.3803     73.00     73.96    -22.46     20.00
   15.3904     73.94     74.11    -21.67     20.00
   15.4006     72.87     74.26    -22.89     20.00
   15.4107     73.34     74.42    -22.58     20.00
   15.4209     73.75     74.57    -22.32     20.00
   15.4311     73.90     74.72    -22.32     20.00
   15.4412     73.81     74.87    -22.56     20.00
   15.4514     75.38     75.03    -21.15     20.00
   15.4616     73.49     75.18    -23.19     20.00
   15.4717     74.92     75.33    -21.91     20.00
   15.4819     74.13     75.49    -22.86     20.00
   15.4921     75.53     75.64    -21.61     20.00
   15.5022     75.35     75.80    -21.95     20.00
   15.5124     75.52     75.95    -21.93     20.00
   15.5226     75.04     76.11    -22.57     20.00
   15.5327     75.37     76.26    -22.39     20.00
   15.5429     76.07     76.42    -21.85     20.00
   15.5530     76.46     76.58    -21.62     20.00
   15.5632     76.57     76.73    -21.66     20.00
   15.5734     75.15     76.89    -23.24     20.00
   15.5835     76.83     77.05    -21.72     20.00
   15.5937     76.48     77.21    -22.23     20.00
   15.6039     76.23     77.36    -22.63     20.00
   15.6140     76.32     77.52    -22.70     20.00
   15.6242     78.39     77.68    -20.79     20.00
   15.6344     78.20     77.84    -21.14     20.00
   15.6445     77.96     78.00    -21.54     20.00
   15.6547     77.91     78.16    -21.75     20.00
   15.6649     76.60     78.32    -23.22     20.00
   15.6750     78.60     78.48    -21.38     20.00
   15.6852     78.99     78.64    -21.15     20.00
   15.6954     79.63     78.80    -20.67     20.00
   15.7055     78.98     78.96    -21.48     20.00
   15.7157     78.70     79.12    -21.92     20.00
   15.7258     79.04     79.28    -21.74     20.00
   15.7360     80.38     79.44    -20.56     20.00
   15.7462     80.18     79.61    -20.93     20.00
   15.7563     78.45     79.77    -22.82     20.00
   15.7665     81.57     79.93    -19.86     20.00
   15.7767     80.67     80.09    -20.92     20.00
   15.7868     78.87     80.26    -22.89     20.00
   15.7970     81.12     80.42    -20.80     20.00
   15.8072     81.88     80.59    -20.21     20.00
   15.8173     79.71     80.75    -22.54     20.00
   15.8275     80.59     80.91    -21.82     20.00
   15.8377     81.87     81.08    -20.71     20.00
   15.8478     82.24     81.24    -20.50     20.00
   15.8580     81.09     81.41    -21.82     20.00
   15.8681     82.42     81.57    -20.65     20.00
   15.8783     80.93     81.74    -22.31     20.00
   15.8885     82.54     81.91    -20.87     20.00
   15.8986     82.12     82.07    -21.45     20.00
   15.9088     81.21     82.24    -22.53     20.00
   15.9190     81.87     82.41    -22.04     20.00
   15.9291     83.80     82.58    -20.28     20.00
   15.9393     83.76     82.74    -20.48     20.00
   15.9495     83.15     82.91    -21.26     20.00
   15.9596     82.29     83.08    -22.29     20.00
   15.9698     83.49     83.25    -21.26     20.00
   15.9800     83.96     83.42    -20.96     20.00
   15.9901     84.82     83.59    -20.27     20.00
   16.0003     84.32     83.76    -20.94     20.00
   16.0105     84.52     83.93    -20.91     20.00
   16.0206     85.15     84.10    -20.45     20.00
   16.0308     85.57     84.27    -20.20     20.00
   16.0409     84.73     84.44    -21.21     20.00
   16.0511     85.47     84.61    -20.64     20.00
   16.0613     85.63     84.79    -20.66     20.00
   16.0714     84.98     84.96    -21.48     20.00
   16.0816     86.51     85.13    -20.12     20.00
   16.0918     87.26     85.30    -19.54     20.00
   16.1019     86.40     85.47    -20.57     20.00
   16.1121     86.62     85.65    -20.53     20.00
   16.1223     87.25     85.82    -20.07     20.00
   16.1324     87.38     86.00    -20.12     20.00
   16.1426     85.83     86.17    -21.84     20.00
   16.1528     86.32     86.35    -21.53     20.00
   16.1629     85.91     86.52    -22.11     20.00
   16.1731     88.60     86.69    -19.59     20.00
   16.1832     88.60     86.87    -19.77     20.00
   16.1934     87.84     87.05    -20.71     20.00
   16.2036     87.61     87.22    -21.11     20.00
   16.2137     88.71     87.40    -20.19     20.00
   16.2239     89.38     87.58    -19.70     20.00
   16.2341     88.54     87.75    -20.71     20.00
   16.2442     87.88     87.93    -21.55     20.00
   16.2544     89.61     88.11    -20.00     20.00
   16.2646     90.09     88.29    -19.70     20.00
   16.2747     89.90     88.46    -20.06     20.00
   16.2849     91.05     88.64    -19.09     20.00
   16.2951     90.57     88.82    -19.75     20.00
   16.3052     90.98     89.00    -19.52     20.00
   16.3154     89.94     89.18    -20.74     20.00
   16.3256     90.38     89.36    -20.48     20.00
   16.3357     90.82     89.54    -20.22     20.00
   16.3459     90.58     89.72    -20.64     20.00
   16.3560     92.37     89.90    -19.03     20.00
   16.3662     91.99     90.09    -19.60     20.00
   16.3764     91.38     90.27    -20.39     20.00
   16.3865     92.95     90.45    -19.00     20.00
   16.3967     93.83     90.63    -18.30     20.00
   16.4069     91.91     90.82    -20.41     20.00
   16.4170     93.12     91.00    -19.38     20.00
   16.4272     93.72     91.18    -18.96     20.00
   16.4374     91.77     91.37    -21.10     20.00
   16.4475     93.15     91.55    -19.90     20.00
   16.4577     93.54     91.74    -19.70     20.00
   16.4679     93.33     91.92    -20.09     20.00
   16.4780     94.12     92.11    -19.49     20.00
   16.4882     94.71     92.29    -19.08     20.00
   16.4983     95.24     92.48    -18.74     20.00
   16.5085     95.09     92.67    -19.08     20.00
   16.5187     93.70     92.86    -20.66     20.00
   16.5288     94.98     93.04    -19.56     20.00
   16.5390     95.92     93.23    -18.81     20.00
   16.5492     94.80     93.42    -20.12     20.00
   16.5593     96.02     93.61    -19.09     20.00
   16.5695     98.28     93.80    -17.02     20.00
   16.5797     96.98     93.99    -18.51     20.00
   16.5898     95.60     94.18    -20.08     20.00
   16.6000     97.20     94.37    -18.67     20.00
   16.6102     96.49     94.56    -19.57     20.00
   16.6203     96.84     94.75    -19.41     20.00
   16.6305     97.40     94.94    -19.04     20.00
   16.6407     97.70     95.13    -18.93     20.00
   16.6508     96.71     95.32    -20.11     20.00
   16.6610     98.69     95.52    -18.33     20.00
   16.6711     98.19     95.71    -19.02     20.00
   16.6813     98.85     95.90    -18.55     20.00
   16.6915    100.07     96.10    -17.53     20.00
   16.7016     99.52     96.29    -18.27     20.00
   16.7118     98.97     96.49    -19.02     20.00
   16.7220    100.79     96.69    -17.40     20.00
   16.7321    100.89     96.88    -17.49     20.00
   16.7423    100.05     97.08    -18.53     20.00
   16.7525     99.35     97.28    -19.43     20.00
   16.7626    102.37     97.47    -16.60     20.00
   16.7728     99.99     97.67    -19.18     20.00
   16.7830    103.09     97.87    -16.28     20.00
   16.7931    101.26     98.07    -18.31     20.00
   16.8033    101.75     98.27    -18.02     20.00
   16.8134    102.37     98.47    -17.60     20.00
   16.8236    102.07     98.67    -18.10     20.00
   16.8338    102.07     98.87    -18.30     20.00
   16.8439    104.04     99.07    -16.53     20.00
   16.8541    102.13     99.28    -18.65     20.00
   16.8643    102.03     99.48    -18.95     20.00
   16.8744    102.09     99.68    -19.09     20.00
   16.8846    101.12     99.89    -20.27     20.00
   16.8948    103.73    100.09    -17.86     20.00
   16.9049    105.41    100.30    -16.39     20.00
   16.9151    103.91    100.50    -18.09     20.00
   16.9253    103.80    100.71    -18.41     20.00
   16.9354    105.34    100.92    -17.08     20.00
   16.9456    104.98    101.13    -17.65     20.00
   16.9558    103.89    101.34    -18.95     20.00
   16.9659    105.77    101.55    -17.28     20.00
   16.9761    104.90    101.76    -18.36     20.00
   16.9862    105.93    101.97    -17.54     20.00
   16.9964    105.90    102.18    -17.78     20.00
   17.0066    104.85    102.39    -19.04     20.00
   17.0167    104.46    102.60    -19.64     20.00
   17.0269    106.84    102.82    -17.48     20.00
   17.0371    105.28    103.04    -19.26     20.00
   17.0472    104.77    103.25    -19.98     20.00
   17.0574    107.53    103.47    -17.44     20.00
   17.0676    106.70    103.69    -18.49     20.00
   17.0777    105.96    103.90    -19.44     20.00
   17.0879    107.66    104.12    -17.96     20.00
   17.0981    107.60    104.34    -18.24     20.00
   17.1082    107.20    104.56    -18.86     20.00
   17.1184    108.73    104.79    -17.56     20.00
   17.1285    109.05    105.01    -17.46     20.00
   17.1387    107.93    105.24    -18.81     20.00
   17.1489    107.66    105.46    -19.30     20.00
   17.1590    107.76    105.69    -19.43     20.00
   17.1692    108.90    105.92    -18.52     20.00
   17.1794    111.31    106.15    -16.34     20.00
   17.1895    109.87    106.37    -18.00     20.00
   17.1997    109.85    106.61    -18.26     20.00
   17.2099    111.79    106.84    -16.55     20.00
   17.2200    109.52    107.07    -19.05     20.00
   17.2302    109.90    107.31    -18.91     20.00
   17.2404    112.95    107.55    -16.10     20.00
   17.2505    110.00    107.78    -19.28     20.00
   17.2607    111.26    108.02    -18.26     20.00
   17.2709    111.41    108.26    -18.35     20.00
   17.2810    112.32    108.51    -17.69     20.00
   17.2912    112.72    108.75    -17.53     20.00
   17.3013    112.25    109.00    -18.25     20.00
   17.3115    112.65    109.24    -18.09     20.00
   17.3217    113.10    109.49    -17.89     20.00
   17.3318    115.03    109.74    -16.21     20.00
   17.3420    114.49    110.00    -17.01     20.00
   17.3522    113.07    110.26    -18.69     20.00
   17.3623    113.61    110.51    -18.40     20.00
   17.3725    112.98    110.77    -19.29     20.00
   17.3827    112.30    111.04    -20.24     20.00
   17.3928    113.44    111.30    -19.36     20.00
   17.4030    113.15    111.57    -19.92     20.00
   17.4132    115.99    111.84    -17.35     20.00
   17.4233    115.04    112.11    -18.57     20.00
   17.4335    113.24    112.39    -20.65     20.00
   17.4436    115.63    112.66    -18.53     20.00
   17.4538    116.74    112.95    -17.71     20.00
   17.4640    116.93    113.23    -17.80     20.00
   17.4741    115.20    113.52    -19.82     20.00
   17.4843    116.37    113.81    -18.94     20.00
   17.4945    116.35    114.11    -19.26     20.00
   17.5046    117.14    114.41    -18.77     20.00
   17.5148    118.26    114.72    -17.96     20.00
   17.5250    115.82    115.03    -20.71     20.00
   17.5351    116.96    115.34    -19.88     20.00
   17.5453    118.59    115.66    -18.57     20.00
   17.5555    119.74    115.98    -17.74     20.00
   17.5656    120.16    116.31    -17.65     20.00
   17.5758    119.49    116.64    -18.65     20.00
   17.5859    120.82    116.98    -17.66     20.00
   17.5961    119.37    117.33    -19.46     20.00
   17.6063    120.31    117.69    -18.88     20.00
   17.6164    121.16    118.04    -18.38     20.00
   17.6266    122.19    118.41    -17.72     20.00
   17.6368    122.46    118.79    -17.83     20.00
   17.6469    121.55    119.17    -19.12     20.00
   17.6571    121.32    119.56    -19.74     20.00
   17.6673    123.73    119.97    -17.74     20.00
   17.6774    123.00    120.37    -18.87     20.00
   17.6876    124.63    120.79    -17.66     20.00
   17.6978    124.24    121.23    -18.49     20.00
   17.7079    125.26    121.66    -17.90     20.00
   17.7181    125.53    122.12    -18.09     20.00
   17.7283    125.92    122.58    -18.16     20.00
   17.7384    125.23    123.06    -19.33     20.00
   17.7486    126.42    123.55    -18.63     20.00
   17.7587    126.67    124.04    -18.87     20.00
   17.7689    127.57    124.56    -18.49     20.00
   17.7791    126.55    125.10    -20.05     20.00
   17.7892    129.16    125.64    -17.98     20.00
   17.7994    129.92    126.20    -17.78     20.00
   17.8096    128.68    126.79    -19.61     20.00
   17.8197    130.35    127.38    -18.53     20.00
   17.8299    131.43    128.00    -18.07     20.00
   17.8401    131.53    128.63    -18.60     20.00
   17.8502    131.75    129.28    -19.03     20.00
   17.8604    132.20    129.96    -19.26     20.00
   17.8706    134.76    130.65    -17.39     20.00
   17.8807    134.95    131.37    -17.92     20.00
   17.8909    135.60    132.11    -18.01     20.00
   17.9010    134.57    132.87    -19.80     20.00
   17.9112    136.11    133.66    -19.05     20.00
   17.9214    136.23    134.47    -19.74     20.00
   17.9315    137.51    135.30    -19.29     20.00
   17.9417    139.20    136.17    -18.47     20.00
   17.9519    137.45    137.07    -21.12     20.00
   17.9620    139.77    137.98    -19.71     20.00
   17.9722    142.37    138.93    -18.06     20.00
   17.9824    142.33    139.91    -19.08     20.00
   17.9925    143.27    140.92    -19.15     20.00
   18.0027    145.27    141.96    -18.19     20.00
   18.0129    143.77    143.04    -20.77     20.00
   18.0230    145.66    144.14    -19.98     20.00
   18.0332    147.24    145.28    -19.54     20.00
   18.0434    147.18    146.45    -20.77     20.00
   18.0535    148.68    147.65    -20.47     20.00
   18.0637    149.13    148.90    -21.27     20.00
   18.0738    151.12    150.16    -20.54     20.00
   18.0840    150.24    151.48    -22.74     20.00
   18.0942    154.17    152.84    -20.17     20.00
   18.1043    154.13    154.21    -21.58     20.00
   18.1145    155.04    155.64    -22.10     20.00
   18.1247    158.99    157.10    -19.61     20.00
   18.1348    156.82    158.59    -23.27     20.00
   18.1450    158.48    160.13    -23.15     20.00
   18.1552    162.72    161.71    -20.49     20.00
   18.1653    163.34    163.31    -21.47     20.00
   18.1755    162.34    164.96    -24.12     20.00
   18.1857    166.13    166.65    -22.02     20.00
   18.1958    167.22    168.35    -22.63     20.00
   18.2060    168.10    170.12    -23.52     20.00
   18.2161    172.05    171.90    -21.35     20.00
   18.2263    170.23    173.73    -25.00     20.00
   18.2365    171.10    175.59    -25.99     20.00
   18.2466    175.13    177.47    -23.84     20.00
   18.2568    177.59    179.40    -23.31     20.00
   18.2670    176.52    181.37    -26.35     20.00
   18.2771    182.76    183.34    -22.08     20.00
   18.2873    181.99    185.35    -24.86     20.00
   18.2975    184.32    187.40    -24.58     20.00
   18.3076    188.37    189.44    -22.57     20.00
   18.3178    186.67    191.53    -26.36     20.00
   18.3280    190.29    193.63    -24.84     20.00
   18.3381    192.41    195.73    -24.82     20.00
   18.3483    192.47    197.87    -26.90     20.00
   18.3585    195.71    200.01    -25.80     20.00
   18.3686    200.44    202.14    -23.20     20.00
   18.3788    200.21    204.29    -25.58     20.00
   18.3889    200.95    206.41    -26.96     20.00
   18.3991    205.46    208.56    -24.60     20.00
   18.4093    209.10    210.68    -23.08     20.00
   18.4194    210.10    212.77    -24.17     20.00
   18.4296    213.20    214.86    -23.16     20.00
   18.4398    217.11    216.92    -21.31     20.00
   18.4499    218.52    218.93    -21.91     20.00
   18.4601    216.78    220.91    -25.63     20.00
   18.4703    219.52    222.85    -24.83     20.00
   18.4804    223.37    224.72    -22.85     20.00
   18.4906    225.91    226.54    -22.13     20.00
   18.5008    226.87    228.29    -22.92     20.00
   18.5109    226.25    229.95    -25.20     20.00
   18.5211    232.73    231.55    -20.32     20.00
   18.5312    232.20    233.04    -22.34     20.00
   18.5414    232.27    234.45    -23.68     20.00
   18.5516    232.53    235.75    -24.72     20.00
   18.5617    238.00    236.94    -20.44     20.00
   18.5719    237.19    238.01    -22.32     20.00
   18.5821    239.13    238.97    -21.34     20.00
   18.5922    241.16    239.79    -20.13     20.00
   18.6024    239.89    240.49    -22.10     20.00
   18.6126    244.21    241.05    -18.34     20.00
   18.6227    242.79    241.48    -20.19     20.00
   18.6329    241.05    241.76    -22.21     20.00
   18.6431    244.05    241.91    -19.36     20.00
   18.6532    245.92    241.91    -17.49     20.00
   18.6634    243.66    241.78    -19.62     20.00
   18.6736    243.22    241.50    -19.78     20.00
   18.6837    243.54    241.09    -19.05     20.00
   18.6939    244.82    240.55    -17.23     20.00
   18.7040    243.46    239.88    -17.92     20.00
   18.7142    243.65    239.08    -16.93     20.00
   18.7244    239.15    238.15    -20.50     20.00
   18.7345    239.03    237.13    -19.60     20.00
   18.7447    240.29    235.98    -17.19     20.00
   18.7549    236.43    234.74    -19.81     20.00
   18.7650    236.60    233.41    -18.31     20.00
   18.7752    233.27    231.98    -20.21     20.00
   18.7854    230.67    230.47    -21.30     20.00
   18.7955    231.80    228.90    -18.60     20.00
   18.8057    230.37    227.26    -18.39     20.00
   18.8159    226.01    225.55    -21.04     20.00
   18.8260    226.20    223.80    -19.10     20.00
   18.8362    225.30    222.00    -18.20     20.00
   18.8463    220.27    220.17    -21.40     20.00
   18.8565    219.55    218.29    -20.24     20.00
   18.8667    218.12    216.39    -19.77     20.00
   18.8768    213.96    214.48    -22.02     20.00
   18.8870    214.02    212.54    -20.02     20.00
   18.8972    213.37    210.59    -18.72     20.00
   18.9073    209.19    208.65    -20.96     20.00
   18.9175    209.63    206.69    -18.56     20.00
   18.9277    204.79    204.73    -21.44     20.00
   18.9378    202.70    202.80    -21.60     20.00
   18.9480    199.39    200.86    -22.97     20.00
   18.9582    198.48    198.93    -21.95     20.00
   18.9683    194.11    197.04    -24.43     20.00
   18.9785    193.71    195.15    -22.94     20.00
   18.9887    194.50    193.28    -20.28     20.00
   18.9988    190.49    191.45    -22.46     20.00
   19.0090    189.23    189.63    -21.90     20.00
   19.0191    188.16    187.85    -21.19     20.00
   19.0293    185.11    186.09    -22.48     20.00
   19.0395    183.75    184.36    -22.11     20.00
   19.0496    182.92    182.67    -21.25     20.00
   19.0598    179.52    181.00    -22.98     20.00
   19.0700    178.50    179.37    -22.37     20.00
   19.0801    177.14    177.78    -22.14     20.00
   19.0903    173.97    176.22    -23.75     20.00
   19.1005    172.63    174.69    -23.56     20.00
   19.1106    172.95    173.22    -21.77     20.00
   19.1208    170.23    171.76    -23.03     20.00
   19.1310    169.75    170.34    -22.09     20.00
   19.1411    170.02    168.98    -20.46     20.00
   19.1513    166.15    167.63    -22.98     20.00
   19.1614    165.16    166.34    -22.68     20.00
   19.1716    163.53    165.07    -23.04     20.00
   19.1818    161.77    163.84    -23.57     20.00
   19.1919    159.67    162.65    -24.48     20.00
   19.2021    161.00    161.49    -21.99     20.00
   19.2123    157.32    160.37    -24.55     20.00
   19.2224    157.01    159.29    -23.78     20.00
   19.2326    156.40    158.24    -23.34     20.00
   19.2428    155.05    157.22    -23.67     20.00
   19.2529    155.37    156.25    -22.38     20.00
   19.2631    151.66    155.30    -25.14     20.00
   19.2733    152.52    154.38    -23.36     20.00
   19.2834    153.16    153.50    -21.84     20.00
   19.2936    152.32    152.65    -21.83     20.00
   19.3038    151.19    151.82    -22.13     20.00
   19.3139    150.35    151.04    -22.19     20.00
   19.3241    148.52    150.27    -23.25     20.00
   19.3342    147.76    149.54    -23.28     20.00
   19.3444    148.23    148.84    -22.11     20.00
   19.3546    147.74    148.15    -21.91     20.00
   19.3647    146.52    147.50    -22.48     20.00
   19.3749    146.02    146.87    -22.35     20.00
   19.3851    145.63    146.27    -22.14     20.00
   19.3952    143.36    145.69    -23.83     20.00
   19.4054    145.03    145.13    -21.60     20.00
   19.4156    143.51    144.60    -22.59     20.00
   19.4257    143.58    144.08    -22.00     20.00
   19.4359    141.27    143.59    -23.82     20.00
   19.4461    141.27    143.11    -23.34     20.00
   19.4562    140.70    142.66    -23.46     20.00
   19.4664    140.65    142.22    -23.07     20.00
   19.4765    142.25    141.81    -21.06     20.00
   19.4867    138.06    141.41    -24.85     20.00
   19.4969    139.56    141.02    -22.96     20.00
   19.5070    139.02    140.65    -23.13     20.00
   19.5172    137.82    140.29    -23.97     20.00
   19.5274    137.29    139.95    -24.16     20.00
   19.5375    137.84    139.62    -23.28     20.00
   19.5477    136.68    139.31    -24.13     20.00
   19.5579    136.82    139.01    -23.69     20.00
   19.5680    137.06    138.72    -23.16     20.00
   19.5782    136.79    138.44    -23.15     20.00
   19.5884    138.71    138.17    -20.96     20.00
   19.5985    135.77    137.91    -23.64     20.00
   19.6087    136.85    137.66    -22.31     20.00
   19.6188    134.99    137.42    -23.93     20.00
   19.6290    136.54    137.19    -22.15     20.00
   19.6392    132.86    136.97    -25.61     20.00
   19.6493    135.97    136.76    -22.29     20.00
   19.6595    133.16    136.55    -24.89     20.00
   19.6697    134.55    136.35    -23.30     20.00
   19.6798    136.24    136.16    -21.42     20.00
   19.6900    133.45    135.97    -24.02     20.00
   19.7002    132.73    135.79    -24.56     20.00
   19.7103    134.10    135.62    -23.02     20.00
   19.7205    133.62    135.45    -23.33     20.00
   19.7307    133.68    135.29    -23.11     20.00
   19.7408    132.45    135.14    -24.19     20.00
   19.7510    134.54    134.98    -21.94     20.00
   19.7612    132.66    134.84    -23.68     20.00
   19.7713    132.26    134.70    -23.94     20.00
   19.7815    133.79    134.56    -22.27     20.00
   19.7916    130.87    134.43    -25.06     20.00
   19.8018    132.12    134.30    -23.68     20.00
   19.8120    132.85    134.17    -22.82     20.00
   19.8221    130.85    134.05    -24.70     20.00
   19.8323    133.67    133.93    -21.76     20.00
   19.8425    132.72    133.82    -22.60     20.00
   19.8526    133.24    133.71    -21.97     20.00
   19.8628    132.45    133.60    -22.65     20.00
   19.8730    131.16    133.50    -23.84     20.00
   19.8831    132.13    133.40    -22.77     20.00
   19.8933    132.33    133.30    -22.47     20.00
   19.9035    130.81    133.21    -23.90     20.00
   19.9136    130.15    133.12    -24.47     20.00
   19.9238    131.26    133.04    -23.28     20.00
   19.9339    131.44    132.96    -23.02     20.00
   19.9441    131.68    132.88    -22.70     20.00
   19.9543    131.90    132.81    -22.41     20.00
   19.9644    131.65    132.74    -22.59     20.00
   19.9746    131.45    132.67    -22.72     20.00
   19.9848    132.46    132.61    -21.65     20.00
   19.9949    134.58    132.55    -19.47     20.00
   20.0051    132.21    132.50    -21.79     20.00
   20.0153    132.66    132.45    -21.29     20.00
   20.0254    131.28    132.41    -22.63     20.00
   20.0356    130.87    132.37    -23.00     20.00
   20.0458    132.79    132.34    -21.05     20.00
   20.0559    133.18    132.32    -20.64     20.00
   20.0661    132.52    132.30    -21.28     20.00
   20.0763    132.54    132.28    -21.24     20.00
   20.0864    131.04    132.28    -22.74     20.00
   20.0966    132.32    132.28    -21.46     20.00
   20.1067    131.85    132.28    -21.93     20.00
   20.1169    134.09    132.30    -19.71     20.00
   20.1271    131.70    132.32    -22.12     20.00
   20.1372    132.95    132.36    -20.91     20.00
   20.1474    133.67    132.40    -20.23     20.00
   20.1576    132.93    132.45    -21.02     20.00
   20.1677    133.53    132.50    -20.47     20.00
   20.1779    134.04    132.57    -20.03     20.00
   20.1881    133.30    132.65    -20.85     20.00
   20.1982    134.05    132.74    -20.19     20.00
   20.2084    135.00    132.84    -19.34     20.00
   20.2186    133.29    132.95    -21.16     20.00
   20.2287    134.72    133.07    -19.85     20.00
   20.2389    135.63    133.20    -19.07     20.00
   20.2490    134.52    133.35    -20.33     20.00
   20.2592    134.78    133.50    -20.22     20.00
   20.2694    136.21    133.67    -18.96     20.00
   20.2795    133.23    133.84    -22.11     20.00
   20.2897    135.95    134.03    -19.58     20.00
   20.2999    136.29    134.23    -19.44     20.00
   20.3100    135.65    134.44    -20.29     20.00
   20.3202    136.68    134.67    -19.49     20.00
   20.3304    137.80    134.90    -18.60     20.00
   20.3405    135.04    135.14    -21.60     20.00
   20.3507    136.71    135.39    -20.18     20.00
   20.3609    136.79    135.65    -20.36     20.00
   20.3710    134.60    135.91    -22.81     20.00
   20.3812    137.65    136.18    -20.03     20.00
   20.3914    138.60    136.46    -19.36     20.00
   20.4015    136.33    136.74    -21.91     20.00
   20.4117    138.62    137.02    -19.90     20.00
   20.4218    139.05    137.30    -19.75     20.00
   20.4320    136.85    137.58    -22.23     20.00
   20.4422    138.05    137.86    -21.31     20.00
   20.4523    138.77    138.12    -20.85     20.00
   20.4625    137.85    138.38    -22.03     20.00
   20.4727    139.93    138.63    -20.20     20.00
   20.4828    139.84    138.85    -20.51     20.00
   20.4930    138.67    139.07    -21.90     20.00
   20.5032    136.09    139.25    -24.66     20.00
   20.5133    137.65    139.41    -23.26     20.00
   20.5235    136.87    139.55    -24.18     20.00
   20.5337    139.07    139.65    -22.08     20.00
   20.5438    137.59    139.71    -23.62     20.00
   20.5540    139.68    139.74    -21.56     20.00
   20.5641    140.60    139.73    -20.63     20.00
   20.5743    138.88    139.68    -22.30     20.00
   20.5845    136.43    139.59    -24.66     20.00
   20.5946    137.09    139.46    -23.87     20.00
   20.6048    137.79    139.29    -23.00     20.00
   20.6150    137.33    139.07    -23.24     20.00
   20.6251    140.12    138.82    -20.20     20.00
   20.6353    138.13    138.54    -21.91     20.00
   20.6455    136.09    138.22    -23.63     20.00
   20.6556    138.87    137.88    -20.51     20.00
   20.6658    138.38    137.50    -20.62     20.00
   20.6760    136.88    137.10    -21.72     20.00
   20.6861    137.03    136.69    -21.16     20.00
   20.6963    136.57    136.25    -21.18     20.00
   20.7065    136.01    135.81    -21.30     20.00
   20.7166    137.64    135.35    -19.21     20.00
   20.7268    137.54    134.89    -18.85     20.00
   20.7369    134.85    134.42    -21.07     20.00
   20.7471    135.23    133.95    -20.22     20.00
   20.7573    134.32    133.47    -20.65     20.00
   20.7674    134.42    133.01    -20.09     20.00
   20.7776    135.62    132.54    -18.42     20.00
   20.7878    133.71    132.07    -19.86     20.00
   20.7979    132.58    131.62    -20.54     20.00
   20.8081    133.70    131.17    -18.97     20.00
   20.8183    131.35    130.73    -20.88     20.00
   20.8284    132.97    130.30    -18.83     20.00
   20.8386    131.32    129.87    -20.05     20.00
   20.8488    131.11    129.46    -19.85     20.00
   20.8589    128.73    129.06    -21.83     20.00
   20.8691    130.17    128.67    -20.00     20.00
   20.8792    131.40    128.30    -18.40     20.00
   20.8894    129.68    127.93    -19.75     20.00
   20.8996    129.79    127.57    -19.28     20.00
   20.9097    128.69    127.23    -20.04     20.00
   20.9199    127.29    126.90    -21.11     20.00
   20.9301    128.70    126.58    -19.38     20.00
   20.9402    128.91    126.28    -18.87     20.00
   20.9504    127.90    125.98    -19.58     20.00
   20.9606    125.91    125.69    -21.28     20.00
   20.9707    124.94    125.42    -21.98     20.00
   20.9809    126.51    125.16    -20.15     20.00
   20.9911    126.60    124.91    -19.81     20.00
   21.0012    125.17    124.67    -21.00     20.00
   21.0114    122.10    124.44    -23.84     20.00
   21.0216    125.15    124.22    -20.57     20.00
   21.0317    123.19    124.01    -22.32     20.00
   21.0419    121.99    123.81    -23.32     20.00
   21.0520    124.39    123.62    -20.73     20.00
   21.0622    123.82    123.43    -21.11     20.00
   21.0724    121.45    123.26    -23.31     20.00
   21.0825    124.45    123.09    -20.14     20.00
   21.0927    120.32    122.93    -24.11     20.00
   21.1029    120.85    122.78    -23.43     20.00
   21.1130    120.68    122.63    -23.45     20.00
   21.1232    120.32    122.50    -23.68     20.00
   21.1334    120.06    122.36    -23.80     20.00
   21.1435    120.02    122.24    -23.72     20.00
   21.1537    120.01    122.12    -23.61     20.00
   21.1639    119.43    122.01    -24.08     20.00
   21.1740    119.59    121.91    -23.82     20.00
   21.1842    119.21    121.81    -24.10     20.00
   21.1943    118.69    121.71    -24.52     20.00
   21.2045    119.17    121.62    -23.95     20.00
   21.2147    120.03    121.54    -23.01     20.00
   21.2248    117.02    121.46    -25.94     20.00
   21.2350    117.55    121.39    -25.34     20.00
   21.2452    118.81    121.32    -24.01     20.00
   21.2553    117.00    121.26    -25.76     20.00
   21.2655    117.07    121.21    -25.64     20.00
   21.2757    118.14    121.15    -24.51     20.00
   21.2858    115.88    121.11    -26.73     20.00
   21.2960    117.30    121.07    -25.27     20.00
   21.3062    114.73    121.03    -27.80     20.00
   21.3163    114.74    121.00    -27.76     20.00
   21.3265    117.48    120.97    -24.99     20.00
   21.3366    115.59    120.95    -26.86     20.00
   21.3468    115.20    120.93    -27.23     20.00
   21.3570    116.52    120.92    -25.90     20.00
   21.3671    116.01    120.92    -26.41     20.00
   21.3773    114.12    120.92    -28.30     20.00
   21.3875    116.66    120.93    -25.77     20.00
   21.3976    114.87    120.94    -27.57     20.00
   21.4078    114.19    120.96    -28.27     20.00
   21.4180    115.82    120.98    -26.66     20.00
   21.4281    117.30    121.01    -25.21     20.00
   21.4383    115.39    121.04    -27.15     20.00
   21.4485    117.22    121.08    -25.36     20.00
   21.4586    116.13    121.13    -26.50     20.00
   21.4688    115.05    121.19    -27.64     20.00
   21.4790    116.90    121.25    -25.85     20.00
   21.4891    116.47    121.31    -26.34     20.00
   21.4993    115.22    121.39    -27.67     20.00
   21.5094    116.34    121.47    -26.63     20.00
   21.5196    117.91    121.56    -25.15     20.00
   21.5298    114.77    121.65    -28.38     20.00
   21.5399    115.92    121.76    -27.34     20.00
   21.5501    117.81    121.87    -25.56     20.00
   21.5603    115.58    121.98    -27.90     20.00
   21.5704    117.60    122.11    -26.01     20.00
   21.5806    116.85    122.24    -26.89     20.00
   21.5908    115.94    122.38    -27.94     20.00
   21.6009    116.95    122.53    -27.08     20.00
   21.6111    119.49    122.69    -24.70     20.00
   21.6213    118.70    122.85    -25.65     20.00
   21.6314    116.55    123.03    -27.98     20.00
   21.6416    117.21    123.21    -27.50     20.00
   21.6517    118.51    123.40    -26.39     20.00
   21.6619    119.46    123.60    -25.64     20.00
   21.6721    120.27    123.81    -25.04     20.00
   21.6822    119.43    124.02    -26.09     20.00
   21.6924    123.02    124.25    -22.73     20.00
   21.7026    121.97    124.49    -24.02     20.00
   21.7127    120.38    124.73    -25.85     20.00
   21.7229    121.99    124.98    -24.49     20.00
   21.7331    122.96    125.25    -23.79     20.00
   21.7432    122.49    125.52    -24.53     20.00
   21.7534    123.65    125.80    -23.65     20.00
   21.7636    125.35    126.09    -22.24     20.00
   21.7737    124.44    126.39    -23.45     20.00
   21.7839    127.34    126.70    -20.86     20.00
   21.7941    127.16    127.02    -21.36     20.00
   21.8042    125.93    127.35    -22.92     20.00
   21.8144    127.87    127.68    -21.31     20.00
   21.8245    129.97    128.03    -19.56     20.00
   21.8347    128.21    128.39    -21.68     20.00
   21.8449    131.34    128.76    -18.92     20.00
   21.8550    132.73    129.13    -17.90     20.00
   21.8652    131.38    129.51    -19.63     20.00
   21.8754    131.46    129.91    -19.95     20.00
   21.8855    134.32    130.31    -17.49     20.00
   21.8957    135.05    130.72    -17.17     20.00
   21.9059    133.65    131.15    -19.00     20.00
   21.9160    135.15    131.57    -17.92     20.00
   21.9262    134.83    132.01    -18.68     20.00
   21.9364    135.43    132.46    -18.53     20.00
   21.9465    138.46    132.91    -15.95     20.00
   21.9567    138.48    133.38    -16.40     20.00
   21.9668    137.96    133.85    -17.39     20.00
   21.9770    139.29    134.33    -16.54     20.00
   21.9872    138.23    134.81    -18.08     20.00
   21.9973    139.95    135.30    -16.85     20.00
   22.0075    141.58    135.80    -15.72     20.00
   22.0177    141.23    136.31    -16.58     20.00
   22.0278    140.71    136.82    -17.61     20.00
   22.0380    142.40    137.33    -16.43     20.00
   22.0482    142.13    137.86    -17.23     20.00
   22.0583    142.40    138.38    -17.48     20.00
   22.0685    143.62    138.91    -16.79     20.00
   22.0787    142.55    139.44    -18.39     20.00
   22.0888    145.05    139.98    -16.43     20.00
   22.0990    145.35    140.52    -16.67     20.00
   22.1092    142.73    141.06    -19.83     20.00
   22.1193    144.52    141.59    -18.57     20.00
   22.1295    148.02    142.14    -15.62     20.00
   22.1396    145.27    142.67    -18.90     20.00
   22.1498    144.92    143.21    -19.79     20.00
   22.1600    147.10    143.75    -18.15     20.00
   22.1701    144.01    144.28    -21.77     20.00
   22.1803    147.32    144.81    -18.99     20.00
   22.1905    147.91    145.34    -18.93     20.00
   22.2006    148.08    145.85    -19.27     20.00
   22.2108    148.10    146.36    -19.76     20.00
   22.2210    150.85    146.87    -17.52     20.00
   22.2311    148.28    147.36    -20.58     20.00
   22.2413    150.38    147.84    -18.96     20.00
   22.2515    150.63    148.31    -19.18     20.00
   22.2616    149.19    148.77    -21.08     20.00
   22.2718    150.74    149.22    -19.98     20.00
   22.2819    150.78    149.64    -20.36     20.00
   22.2921    150.39    150.06    -21.17     20.00
   22.3023    152.37    150.45    -19.58     20.00
   22.3124    153.03    150.83    -19.30     20.00
   22.3226    151.30    151.18    -21.38     20.00
   22.3328    154.37    151.52    -18.65     20.00
   22.3429    151.90    151.83    -21.43     20.00
   22.3531    152.79    152.11    -20.82     20.00
   22.3633    153.40    152.38    -20.48     20.00
   22.3734    154.74    152.61    -19.37     20.00
   22.3836    151.29    152.82    -23.03     20.00
   22.3938    152.71    152.99    -21.78     20.00
   22.4039    154.32    153.14    -20.32     20.00
   22.4141    151.07    153.26    -23.69     20.00
   22.4243    154.94    153.35    -19.91     20.00
   22.4344    153.34    153.40    -21.56     20.00
   22.4446    150.61    153.42    -24.31     20.00
   22.4547    151.15    153.41    -23.76     20.00
   22.4649    153.72    153.37    -21.15     20.00
   22.4751    149.45    153.28    -25.33     20.00
   22.4852    151.51    153.17    -23.16     20.00
   22.4954    150.65    153.02    -23.87     20.00
   22.5056    150.82    152.83    -23.51     20.00
   22.5157    149.64    152.62    -24.48     20.00
   22.5259    151.99    152.36    -21.87     20.00
   22.5361    148.30    152.07    -25.27     20.00
   22.5462    149.71    151.75    -23.54     20.00
   22.5564    150.49    151.39    -22.40     20.00
   22.5666    146.15    151.00    -26.35     20.00
   22.5767    149.07    150.58    -23.01     20.00
   22.5869    148.16    150.13    -23.47     20.00
   22.5970    145.88    149.65    -25.27     20.00
   22.6072    146.40    149.13    -24.23     20.00
   22.6174    146.00    148.59    -24.09     20.00
   22.6275    145.20    148.02    -24.32     20.00
   22.6377    145.93    147.43    -23.00     20.00
   22.6479    145.28    146.80    -23.02     20.00
   22.6580    142.76    146.16    -24.90     20.00
   22.6682    142.81    145.49    -24.18     20.00
   22.6784    142.05    144.80    -24.25     20.00
   22.6885    141.11    144.10    -24.49     20.00
   22.6987    142.16    143.36    -22.70     20.00
   22.7089    141.22    142.62    -22.90     20.00
   22.7190    139.71    141.86    -23.65     20.00
   22.7292    139.65    141.08    -22.93     20.00
   22.7394    138.41    140.28    -23.37     20.00
   22.7495    136.31    139.48    -24.67     20.00
   22.7597    139.45    138.66    -20.71     20.00
   22.7698    133.93    137.84    -25.41     20.00
   22.7800    134.76    137.00    -23.74     20.00
   22.7902    135.59    136.16    -22.07     20.00
   22.8003    134.42    135.31    -22.39     20.00
   22.8105    132.26    134.45    -23.69     20.00
   22.8207    133.38    133.59    -21.71     20.00
   22.8308    133.42    132.73    -20.81     20.00
   22.8410    130.54    131.86    -22.82     20.00
   22.8512    129.75    130.99    -22.74     20.00
   22.8613    130.49    130.12    -21.13     20.00
   22.8715    128.84    129.24    -21.90     20.00
   22.8817    127.35    128.37    -22.52     20.00
   22.8918    129.13    127.50    -19.87     20.00
   22.9020    126.04    126.63    -22.09     20.00
   22.9121    127.09    125.77    -20.18     20.00
   22.9223    124.65    124.91    -21.76     20.00
   22.9325    124.02    124.04    -21.52     20.00
   22.9426    123.00    123.19    -21.69     20.00
   22.9528    122.66    122.34    -21.18     20.00
   22.9630    121.82    121.49    -21.17     20.00
   22.9731    122.09    120.65    -20.06     20.00
   22.9833    120.62    119.82    -20.70     20.00
   22.9935    118.69    118.99    -21.80     20.00
   23.0036    120.32    118.17    -19.35     20.00
   23.0138    118.07    117.35    -20.78     20.00
   23.0240    116.33    116.54    -21.71     20.00
   23.0341    116.73    115.75    -20.52     20.00
   23.0443    116.99    114.95    -19.46     20.00
   23.0545    114.61    114.17    -21.06     20.00
   23.0646    115.71    113.40    -19.19     20.00
   23.0748    114.12    112.63    -20.01     20.00
   23.0849    112.21    111.88    -21.17     20.00
   23.0951    113.33    111.12    -19.29     20.00
   23.1053    111.55    110.38    -20.33     20.00
   23.1154    112.09    109.66    -19.07     20.00
   23.1256    111.69    108.93    -18.74     20.00
   23.1358    109.63    108.22    -20.09     20.00
   23.1459    107.45    107.52    -21.57     20.00
   23.1561    109.09    106.83    -19.24     20.00
   23.1663    109.36    106.14    -18.28     20.00
   23.1764    106.32    105.47    -20.65     20.00
   23.1866    107.24    104.81    -19.07     20.00
   23.1968    107.40    104.15    -18.25     20.00
   23.2069    105.17    103.51    -19.84     20.00
   23.2171    106.48    102.87    -17.89     20.00
   23.2272    104.04    102.25    -19.71     20.00
   23.2374    103.40    101.63    -19.73     20.00
   23.2476    103.14    101.03    -19.39     20.00
   23.2577    102.95    100.43    -18.98     20.00
   23.2679    102.11     99.85    -19.24     20.00
   23.2781    102.16     99.27    -18.61     20.00
   23.2882     99.73     98.70    -20.47     20.00
   23.2984    100.57     98.14    -19.07     20.00
   23.3086     98.24     97.59    -20.85     20.00
   23.3187     98.00     97.06    -20.56     20.00
   23.3289     99.53     96.52    -18.49     20.00
   23.3391     98.16     96.00    -19.34     20.00
   23.3492     98.04     95.49    -18.95     20.00
   23.3594     97.30     94.98    -19.18     20.00
   23.3695     96.54     94.49    -19.45     20.00
   23.3797     96.98     94.00    -18.52     20.00
   23.3899     95.24     93.52    -19.78     20.00
   23.4000     95.63     93.05    -18.92     20.00
   23.4102     95.16     92.59    -18.93     20.00
   23.4204     94.78     92.14    -18.86     20.00
   23.4305     95.08     91.69    -18.11     20.00
   23.4407     91.99     91.25    -20.76     20.00
   23.4509     91.91     90.82    -20.41     20.00
   23.4610     92.45     90.40    -19.45     20.00
   23.4712     90.55     89.98    -20.93     20.00
   23.4814     89.60     89.57    -21.47     20.00
   23.4915     90.82     89.17    -19.85     20.00
   23.5017     90.04     88.78    -20.24     20.00
   23.5119     91.20     88.39    -18.69     20.00
   23.5220     89.04     88.01    -20.47     20.00
   23.5322     89.57     87.64    -19.57     20.00
   23.5423     88.46     87.27    -20.31     20.00
   23.5525     88.30     86.91    -20.11     20.00
   23.5627     87.40     86.55    -20.65     20.00
   23.5728     87.98     86.20    -19.72     20.00
   23.5830     87.13     85.86    -20.23     20.00
   23.5932     87.35     85.52    -19.67     20.00
   23.6033     86.17     85.19    -20.52     20.00
   23.6135     84.66     84.86    -21.70     20.00
   23.6237     85.44     84.54    -20.60     20.00
   23.6338     84.95     84.23    -20.78     20.00
   23.6440     85.10     83.91    -20.31     20.00
   23.6542     84.16     83.61    -20.95     20.00
   23.6643     83.68     83.31    -21.13     20.00
   23.6745     83.36     83.01    -21.15     20.00
   23.6846     82.96     82.72    -21.26     20.00
   23.6948     82.63     82.43    -21.30     20.00
   23.7050     82.52     82.14    -21.12     20.00
   23.7151     82.55     81.87    -20.82     20.00
   23.7253     80.91     81.59    -22.18     20.00
   23.7355     81.55     81.32    -21.27     20.00
   23.7456     80.04     81.05    -22.51     20.00
   23.7558     80.45     80.79    -21.84     20.00
   23.7660     78.46     80.53    -23.57     20.00
   23.7761     80.44     80.27    -21.33     20.00
   23.7863     79.42     80.02    -22.10     20.00
   23.7965     79.27     79.76    -21.99     20.00
   23.8066     80.90     79.52    -20.12     20.00
   23.8168     77.88     79.28    -22.90     20.00
   23.8270     76.83     79.03    -23.70     20.00
   23.8371     78.69     78.80    -21.61     20.00
   23.8473     78.09     78.56    -21.97     20.00
   23.8574     78.79     78.33    -21.04     20.00
   23.8676     77.43     78.10    -22.17     20.00
   23.8778     77.10     77.87    -22.27     20.00
   23.8879     76.80     77.65    -22.35     20.00
   23.8981     77.29     77.43    -21.64     20.00
   23.9083     74.90     77.21    -23.81     20.00
   23.9184     75.27     76.99    -23.22     20.00
   23.9286     76.04     76.78    -22.24     20.00
   23.9388     75.44     76.56    -22.62     20.00
   23.9489     74.34     76.36    -23.52     20.00
   23.9591     74.11     76.15    -23.54     20.00
   23.9693     74.63     75.94    -22.81     20.00
   23.9794     74.67     75.74    -22.57     20.00
   23.9896     73.96     75.53    -23.07     20.00
   23.9997     74.46     75.33    -22.37     20.00
   24.0099     72.32     75.13    -24.31     20.00
   24.0201     73.45     74.94    -22.99     20.00
   24.0302     71.53     74.74    -24.71     20.00
   24.0404     74.00     74.55    -22.05     20.00
   24.0506     72.34     74.36    -23.52     20.00
   24.0607     73.92     74.17    -21.75     20.00
   24.0709     70.55     73.98    -24.93     20.00
   24.0811     71.56     73.79    -23.73     20.00
   24.0912     72.18     73.60    -22.92     20.00
   24.1014     72.85     73.42    -22.07     20.00
   24.1116     71.85     73.23    -22.88     20.00
   24.1217     70.74     73.05    -23.81     20.00
   24.1319     70.90     72.87    -23.47     20.00
   24.1421     71.43     72.69    -22.76     20.00
   24.1522     70.37     72.51    -23.64     20.00
   24.1624     69.04     72.34    -24.80     20.00
   24.1725     70.96     72.16    -22.70     20.00
   24.1827     71.42     71.99    -22.07     20.00
   24.1929     69.79     71.81    -23.52     20.00
   24.2030     70.09     71.64    -23.05     20.00
   24.2132     69.29     71.47    -23.68     20.00
   24.2234     70.35     71.30    -22.45     20.00
   24.2335     67.70     71.13    -24.93     20.00
   24.2437     66.83     70.96    -25.63     20.00
   24.2539     68.87     70.79    -23.42     20.00
   24.2640     68.59     70.63    -23.54     20.00
   24.2742     69.09     70.46    -22.87     20.00
   24.2844     68.23     70.30    -23.57     20.00
   24.2945     68.30     70.13    -23.33     20.00
   24.3047     68.00     69.97    -23.47     20.00
   24.3148     67.71     69.81    -23.60     20.00
   24.3250     67.31     69.65    -23.84     20.00
   24.3352     66.80     69.49    -24.19     20.00
   24.3453     67.23     69.33    -23.60     20.00
   24.3555     66.39     69.17    -24.28     20.00
   24.3657     67.10     69.01    -23.41     20.00
   24.3758     65.43     68.86    -24.93     20.00
   24.3860     66.99     68.70    -23.21     20.00
   24.3962     65.26     68.55    -24.79     20.00
   24.4063     67.10     68.39    -22.79     20.00
   24.4165     66.88     68.24    -22.86     20.00
   24.4267     66.49     68.09    -23.10     20.00
   24.4368     65.58     67.93    -23.85     20.00
   24.4470     65.11     67.78    -24.17     20.00
   24.4572     65.43     67.63    -23.70     20.00
   24.4673     65.55     67.48    -23.43     20.00
   24.4775     65.16     67.33    -23.67     20.00
   24.4876     64.63     67.19    -24.06     20.00
   24.4978     65.29     67.04    -23.25     20.00
   24.5080     64.23     66.89    -24.16     20.00
   24.5181     62.73     66.74    -25.51     20.00
   24.5283     64.74     66.60    -23.36     20.00
   24.5385     63.65     66.45    -24.30     20.00
   24.5486     64.71     66.31    -23.10     20.00
   24.5588     63.45     66.16    -24.21     20.00
   24.5690     62.62     66.02    -24.90     20.00
   24.5791     62.99     65.88    -24.39     20.00
   24.5893     63.98     65.74    -23.26     20.00
   24.5995     63.49     65.60    -23.61     20.00
   24.6096     64.65     65.46    -22.31     20.00
   24.6198     63.87     65.32    -22.95     20.00
   24.6299     63.07     65.18    -23.61     20.00
   24.6401     61.57     65.04    -24.97     20.00
   24.6503     63.43     64.90    -22.97     20.00
   24.6604     62.26     64.76    -24.00     20.00
   24.6706     61.80     64.62    -24.32     20.00
   24.6808     61.86     64.49    -24.13     20.00
   24.6909     62.84     64.35    -23.01     20.00
   24.7011     62.85     64.22    -22.87     20.00
   24.7113     63.13     64.08    -22.45     20.00
   24.7214     62.05     63.95    -23.40     20.00
   24.7316     61.78     63.82    -23.54     20.00
   24.7418     62.27     63.68    -22.91     20.00
   24.7519     61.26     63.55    -23.79     20.00
   24.7621     61.30     63.42    -23.62     20.00
   24.7723     62.63     63.29    -22.16     20.00
   24.7824     62.23     63.16    -22.43     20.00
   24.7926     61.43     63.03    -23.10     20.00
   24.8027     61.43     62.90    -22.97     20.00
   24.8129     62.30     62.77    -21.97     20.00
   24.8231     61.27     62.64    -22.87     20.00
   24.8332     60.50     62.51    -23.51     20.00
   24.8434     59.91     62.38    -23.97     20.00
   24.8536     60.88     62.26    -22.88     20.00
   24.8637     60.79     62.13    -22.84     20.00
   24.8739     61.23     62.00    -22.27     20.00
   24.8841     59.88     61.88    -23.50     20.00
   24.8942     61.43     61.75    -21.82     20.00
   24.9044     60.40     61.63    -22.73     20.00
   24.9146     60.68     61.50    -22.32     20.00
   24.9247     61.40     61.38    -21.48     20.00
   24.9349     60.30     61.26    -22.46     20.00
   24.9450     58.85     61.14    -23.79     20.00
   24.9552     61.14     61.01    -21.37     20.00
   24.9654     59.82     60.89    -22.57     20.00
   24.9755     59.55     60.77    -22.72     20.00
   24.9857     58.94     60.65    -23.21     20.00
   24.9959     58.61     60.53    -23.42     20.00
   25.0060     59.87     60.41    -22.04     20.00
   25.0162     59.00     60.29    -22.79     20.00
   25.0264     58.88     60.18    -22.80     20.00
   25.0365     59.22     60.06    -22.34     20.00
   25.0467     57.70     59.94    -23.74     20.00
   25.0569     59.96     59.82    -21.36     20.00
   25.0670     59.71     59.71    -21.50     20.00
   25.0772     59.70     59.59    -21.39     20.00
   25.0874     58.26     59.47    -22.71     20.00
   25.0975     59.63     59.36    -21.23     20.00
   25.1077     58.61     59.25    -22.14     20.00
   25.1178     58.83     59.13    -21.80     20.00
   25.1280     57.74     59.02    -22.78     20.00
   25.1382     58.43     58.90    -21.97     20.00
   25.1483     58.87     58.79    -21.42     20.00
   25.1585     59.20     58.68    -20.98     20.00
   25.1687     58.18     58.57    -21.89     20.00
   25.1788     57.30     58.46    -22.66     20.00
   25.1890     58.37     58.35    -21.48     20.00
   25.1992     59.45     58.24    -20.29     20.00
   25.2093     57.91     58.13    -21.72     20.00
   25.2195     57.84     58.02    -21.68     20.00
   25.2297     58.53     57.91    -20.88     20.00
   25.2398     58.26     57.80    -21.04     20.00
   25.2500     58.09     57.69    -21.10     20.00
   25.2601     57.26     57.58    -21.82     20.00
   25.2703     58.71     57.48    -20.27     20.00
   25.2805     58.41     57.37    -20.46     20.00
   25.2906     56.81     57.26    -21.95     20.00
   25.3008     57.49     57.16    -21.17     20.00
   25.3110     57.91     57.05    -20.64     20.00
   25.3211     58.14     56.95    -20.31     20.00
   25.3313     57.21     56.84    -21.13     20.00
   25.3415     57.88     56.74    -20.36     20.00
   25.3516     56.97     56.64    -21.17     20.00
   25.3618     57.48     56.53    -20.55     20.00
   25.3720     57.41     56.43    -20.52     20.00
   25.3821     56.08     56.33    -21.75     20.00
   25.3923     57.70     56.23    -20.03     20.00
   25.4024     56.02     56.13    -21.61     20.00
   25.4126     56.82     56.03    -20.71     20.00
   25.4228     57.46     55.92    -19.96     20.00
   25.4329     56.60     55.83    -20.73     20.00
   25.4431     56.56     55.73    -20.67     20.00
   25.4533     57.59     55.63    -19.54     20.00
   25.4634     57.56     55.53    -19.47     20.00
   25.4736     56.73     55.43    -20.20     20.00
   25.4838     56.86     55.33    -19.97     20.00
   25.4939     55.92     55.24    -20.82     20.00
   25.5041     55.68     55.14    -20.96     20.00
   25.5143     55.87     55.04    -20.67     20.00
   25.5244     54.99     54.95    -21.46     20.00
   25.5346     55.87     54.85    -20.48     20.00
   25.5448     56.68     54.75    -19.57     20.00
   25.5549     56.67     54.66    -19.49     20.00
   25.5651     56.84     54.57    -19.23     20.00
   25.5752     56.12     54.47    -19.85     20.00
   25.5854     56.98     54.38    -18.90     20.00
   25.5956     56.34     54.29    -19.45     20.00
   25.6057     56.13     54.20    -19.57     20.00
   25.6159     55.41     54.10    -20.19     20.00
   25.6261     55.40     54.01    -20.11     20.00
   25.6362     56.41     53.92    -19.01     20.00
   25.6464     56.54     53.83    -18.79     20.00
   25.6566     56.15     53.74    -19.09     20.00
   25.6667     54.68     53.65    -20.47     20.00
   25.6769     54.76     53.56    -20.30     20.00
   25.6871     55.09     53.47    -19.88     20.00
   25.6972     56.62     53.38    -18.26     20.00
   25.7074     56.19     53.30    -18.61     20.00
   25.7175     55.55     53.21    -19.16     20.00
   25.7277     55.37     53.12    -19.25     20.00
   25.7379     54.96     53.04    -19.58     20.00
   25.7480     55.74     52.95    -18.71     20.00
   25.7582     55.13     52.86    -19.23     20.00
   25.7684     54.81     52.78    -19.47     20.00
   25.7785     54.38     52.69    -19.81     20.00
   25.7887     54.66     52.61    -19.45     20.00
   25.7989     54.29     52.53    -19.74     20.00
   25.8090     55.24     52.44    -18.70     20.00
   25.8192     53.73     52.36    -20.13     20.00
   25.8294     53.59     52.28    -20.19     20.00
   25.8395     54.76     52.20    -18.94     20.00
   25.8497     54.62     52.12    -19.00     20.00
   25.8599     54.90     52.03    -18.63     20.00
   25.8700     54.27     51.95    -19.18     20.00
   25.8802     53.91     51.87    -19.46     20.00
   25.8903     54.54     51.80    -18.76     20.00
   25.9005     54.53     51.72    -18.69     20.00
   25.9107     53.82     51.64    -19.32     20.00
   25.9208     53.97     51.56    -19.09     20.00
   25.9310     53.60     51.48    -19.38     20.00
   25.9412     54.65     51.40    -18.25     20.00
   25.9513     53.87     51.33    -18.96     20.00
   25.9615     53.52     51.25    -19.23     20.00
   25.9717     53.95     51.18    -18.73     20.00
   25.9818     52.59     51.10    -20.01     20.00
   25.9920     52.98     51.03    -19.55     20.00
   26.0022     54.30     50.95    -18.15     20.00
   26.0123     53.23     50.88    -19.15     20.00
   26.0225     53.77     50.81    -18.54     20.00
   26.0326     53.31     50.73    -18.92     20.00
   26.0428     53.10     50.66    -19.06     20.00
   26.0530     54.47     50.59    -17.62     20.00
   26.0631     53.21     50.52    -18.81     20.00
   26.0733     53.71     50.45    -18.24     20.00
   26.0835     52.66     50.38    -19.22     20.00
   26.0936     52.88     50.31    -18.93     20.00
   26.1038     52.54     50.24    -19.20     20.00
   26.1140     52.66     50.17    -19.01     20.00
   26.1241     53.56     50.11    -18.05     20.00
   26.1343     52.90     50.04    -18.64     20.00
   26.1445     53.81     49.97    -17.66     20.00
   26.1546     52.26     49.91    -19.15     20.00
   26.1648     53.01     49.84    -18.33     20.00
   26.1750     52.85     49.78    -18.43     20.00
   26.1851     52.82     49.71    -18.39     20.00
   26.1953     52.25     49.65    -18.90     20.00
   26.2054     52.15     49.59    -18.94     20.00
   26.2156     51.62     49.52    -19.40     20.00
   26.2258     51.83     49.46    -19.13     20.00
   26.2359     52.57     49.40    -18.33     20.00
   26.2461     51.96     49.34    -18.88     20.00
   26.2563     52.48     49.28    -18.30     20.00
   26.2664     51.32     49.22    -19.40     20.00
   26.2766     51.92     49.16    -18.74     20.00
   26.2868     50.87     49.11    -19.74     20.00
   26.2969     51.92     49.05    -18.63     20.00
   26.3071     51.49     48.99    -19.00     20.00
   26.3173     50.76     48.94    -19.68     20.00
   26.3274     51.10     48.88    -19.28     20.00
   26.3376     50.05     48.83    -20.28     20.00
   26.3477     52.31     48.77    -17.96     20.00
   26.3579     51.14     48.72    -19.08     20.00
   26.3681     52.20     48.67    -17.97     20.00
   26.3782     51.41     48.62    -18.71     20.00
   26.3884     51.91     48.56    -18.15     20.00
   26.3986     51.31     48.51    -18.70     20.00
   26.4087     51.42     48.47    -18.55     20.00
   26.4189     52.05     48.42    -17.87     20.00
   26.4291     52.23     48.37    -17.64     20.00
   26.4392     51.80     48.32    -18.02     20.00
   26.4494     52.03     48.28    -17.75     20.00
   26.4596     50.89     48.23    -18.84     20.00
   26.4697     51.71     48.19    -17.98     20.00
   26.4799     51.62     48.14    -18.02     20.00
   26.4901     51.08     48.10    -18.52     20.00
   26.5002     50.82     48.06    -18.74     20.00
   26.5104     50.73     48.01    -18.78     20.00
   26.5205     50.40     47.97    -19.07     20.00
   26.5307     50.54     47.93    -18.89     20.00
   26.5409     50.51     47.90    -18.89     20.00
   26.5510     50.50     47.86    -18.86     20.00
   26.5612     51.44     47.82    -17.88     20.00
   26.5714     50.93     47.79    -18.36     20.00
   26.5815     49.78     47.75    -19.47     20.00
   26.5917     50.71     47.72    -18.51     20.00
   26.6019     51.20     47.68    -17.98     20.00
   26.6120     50.21     47.65    -18.94     20.00
   26.6222     49.95     47.62    -19.17     20.00
   26.6324     50.05     47.59    -19.04     20.00
   26.6425     50.79     47.56    -18.27     20.00
   26.6527     50.37     47.53    -18.66     20.00
   26.6628     51.18     47.51    -17.83     20.00
   26.6730     50.75     47.48    -18.23     20.00
   26.6832     51.00     47.46    -17.96     20.00
   26.6933     50.34     47.43    -18.59     20.00
   26.7035     50.73     47.41    -18.18     20.00
   26.7137     49.05     47.39    -19.84     20.00
   26.7238     49.42     47.37    -19.45     20.00
   26.7340     51.52     47.35    -17.33     20.00
   26.7442     49.71     47.33    -19.12     20.00
   26.7543     50.67     47.31    -18.14     20.00
   26.7645     49.57     47.30    -19.23     20.00
   26.7747     49.24     47.29    -19.55     20.00
   26.7848     50.90     47.27    -17.87     20.00
   26.7950     49.43     47.26    -19.33     20.00
   26.8052     49.82     47.25    -18.93     20.00
   26.8153     50.09     47.24    -18.65     20.00
   26.8255     49.87     47.23    -18.86     20.00
   26.8356     49.88     47.23    -18.85     20.00
   26.8458     50.01     47.22    -18.71     20.00
   26.8560     48.70     47.22    -20.02     20.00
   26.8661     49.76     47.21    -18.95     20.00
   26.8763     49.87     47.21    -18.84     20.00
   26.8865     49.17     47.21    -19.54     20.00
   26.8966     50.28     47.22    -18.44     20.00
   26.9068     50.38     47.22    -18.34     20.00
   26.9170     48.68     47.22    -20.04     20.00
   26.9271     49.63     47.23    -19.10     20.00
   26.9373     49.25     47.24    -19.49     20.00
   26.9475     48.72     47.25    -20.03     20.00
   26.9576     49.38     47.26    -19.38     20.00
   26.9678     49.35     47.27    -19.42     20.00
   26.9779     49.21     47.28    -19.57     20.00
   26.9881     49.65     47.30    -19.15     20.00
   26.9983     48.38     47.32    -20.44     20.00
   27.0084     49.25     47.33    -19.58     20.00
   27.0186     47.99     47.36    -20.87     20.00
   27.0288     49.26     47.38    -19.62     20.00
   27.0389     48.80     47.40    -20.10     20.00
   27.0491     49.42     47.43    -19.51     20.00
   27.0593     49.63     47.45    -19.32     20.00
   27.0694     49.76     47.48    -19.22     20.00
   27.0796     49.54     47.51    -19.47     20.00
   27.0898     49.12     47.54    -19.92     20.00
   27.0999     48.92     47.58    -20.16     20.00
   27.1101     49.43     47.61    -19.68     20.00
   27.1202     49.48     47.65    -19.67     20.00
   27.1304     49.32     47.69    -19.87     20.00
   27.1406     48.58     47.73    -20.65     20.00
   27.1507     48.53     47.78    -20.75     20.00
   27.1609     49.57     47.82    -19.75     20.00
   27.1711     48.04     47.87    -21.33     20.00
   27.1812     50.26     47.92    -19.16     20.00
   27.1914     48.74     47.97    -20.73     20.00
   27.2016     49.16     48.02    -20.36     20.00
   27.2117     48.89     48.07    -20.68     20.00
   27.2219     48.76     48.13    -20.87     20.00
   27.2321     49.30     48.19    -20.39     20.00
   27.2422     48.80     48.25    -20.95     20.00
   27.2524     49.91     48.31    -19.90     20.00
   27.2626     49.62     48.38    -20.26     20.00
   27.2727     49.93     48.44    -20.01     20.00
   27.2829     48.85     48.51    -21.16     20.00
   27.2930     50.59     48.58    -19.49     20.00
   27.3032     49.43     48.65    -20.72     20.00
   27.3134     48.95     48.73    -21.28     20.00
   27.3235     49.23     48.80    -21.07     20.00
   27.3337     49.54     48.88    -20.84     20.00
   27.3439     48.77     48.96    -21.69     20.00
   27.3540     49.32     49.04    -21.22     20.00
   27.3642     50.19     49.13    -20.44     20.00
   27.3744     49.80     49.22    -20.92     20.00
   27.3845     48.82     49.30    -21.98     20.00
   27.3947     49.60     49.40    -21.30     20.00
   27.4049     48.55     49.49    -22.44     20.00
   27.4150     48.77     49.58    -22.31     20.00
   27.4252     49.32     49.68    -21.86     20.00
   27.4353     49.85     49.78    -21.43     20.00
   27.4455     49.45     49.88    -21.93     20.00
   27.4557     49.64     49.98    -21.84     20.00
   27.4658     49.40     50.09    -22.19     20.00
   27.4760     49.45     50.20    -22.25     20.00
   27.4862     48.89     50.31    -22.92     20.00
   27.4963     49.92     50.42    -22.00     20.00
   27.5065     49.47     50.53    -22.56     20.00
   27.5167     50.03     50.65    -22.12     20.00
   27.5268     48.80     50.76    -23.46     20.00
   27.5370     49.82     50.88    -22.56     20.00
   27.5472     50.12     51.01    -22.39     20.00
   27.5573     49.35     51.13    -23.28     20.00
   27.5675     51.23     51.25    -21.52     20.00
   27.5777     51.18     51.38    -21.70     20.00
   27.5878     50.17     51.51    -22.84     20.00
   27.5980     49.21     51.64    -23.93     20.00
   27.6081     49.63     51.78    -23.65     20.00
   27.6183     50.32     51.91    -23.09     20.00
   27.6285     50.51     52.05    -23.04     20.00
   27.6386     50.34     52.19    -23.35     20.00
   27.6488     50.58     52.33    -23.25     20.00
   27.6590     51.55     52.47    -22.42     20.00
   27.6691     50.10     52.61    -24.01     20.00
   27.6793     51.82     52.76    -22.44     20.00
   27.6895     50.80     52.91    -23.61     20.00
   27.6996     50.90     53.06    -23.66     20.00
   27.7098     50.85     53.21    -23.86     20.00
   27.7200     50.97     53.36    -23.89     20.00
   27.7301     50.71     53.52    -24.31     20.00
   27.7403     51.76     53.67    -23.41     20.00
   27.7504     51.85     53.83    -23.48     20.00
   27.7606     52.01     53.99    -23.48     20.00
   27.7708     52.18     54.15    -23.47     20.00
   27.7809     51.77     54.31    -24.04     20.00
   27.7911     51.78     54.47    -24.19     20.00
   27.8013     52.63     54.63    -23.50     20.00
   27.8114     51.75     54.80    -24.55     20.00
   27.8216     52.04     54.96    -24.42     20.00
   27.8318     53.09     55.13    -23.54     20.00
   27.8419     52.88     55.30    -23.92     20.00
   27.8521     53.49     55.46    -23.47     20.00
   27.8623     52.66     55.63    -24.47     20.00
   27.8724     54.14     55.80    -23.16     20.00
   27.8826     53.52     55.97    -23.95     20.00
   27.8928     53.81     56.14    -23.83     20.00
   27.9029     54.00     56.31    -23.81     20.00
   27.9131     55.27     56.49    -22.72     20.00
   27.9232     54.26     56.66    -23.90     20.00
   27.9334     53.96     56.83    -24.37     20.00
   27.9436     54.37     57.00    -24.13     20.00
   27.9537     55.15     57.17    -23.52     20.00
   27.9639     54.40     57.35    -24.45     20.00
   27.9741     55.34     57.52    -23.68     20.00
   27.9842     55.71     57.69    -23.48     20.00
   27.9944     56.83     57.86    -22.53     20.00
   28.0046     55.10     58.03    -24.43     20.00
   28.0147     56.84     58.20    -22.86     20.00
   28.0249     56.64     58.37    -23.23     20.00
   28.0351     56.26     58.54    -23.78     20.00
   28.0452     56.93     58.70    -23.27     20.00
   28.0554     56.54     58.87    -23.83     20.00
   28.0655     57.51     59.03    -23.02     20.00
   28.0757     57.55     59.19    -23.14     20.00
   28.0859     57.43     59.36    -23.43     20.00
   28.0960     58.44     59.51    -22.57     20.00
   28.1062     58.60     59.67    -22.57     20.00
   28.1164     57.71     59.83    -23.62     20.00
   28.1265     58.96     59.98    -22.52     20.00
   28.1367     59.38     60.13    -22.25     20.00
   28.1469     60.04     60.28    -21.74     20.00
   28.1570     59.00     60.42    -22.92     20.00
   28.1672     59.58     60.56    -22.48     20.00
   28.1774     59.44     60.70    -22.76     20.00
   28.1875     60.12     60.84    -22.22     20.00
   28.1977     59.92     60.97    -22.55     20.00
   28.2079     61.34     61.10    -21.26     20.00
   28.2180     60.10     61.22    -22.62     20.00
   28.2282     61.18     61.35    -21.67     20.00
   28.2383     61.87     61.46    -21.09     20.00
   28.2485     62.14     61.58    -20.94     20.00
   28.2587     62.12     61.69    -21.07     20.00
   28.2688     62.27     61.79    -21.02     20.00
   28.2790     61.60     61.89    -21.79     20.00
   28.2892     62.20     61.99    -21.29     20.00
   28.2993     62.74     62.08    -20.84     20.00
   28.3095     62.80     62.17    -20.87     20.00
   28.3197     64.66     62.25    -19.09     20.00
   28.3298     63.46     62.32    -20.36     20.00
   28.3400     63.21     62.39    -20.68     20.00
   28.3502     63.25     62.46    -20.71     20.00
   28.3603     64.12     62.52    -19.90     20.00
   28.3705     64.30     62.57    -19.77     20.00
   28.3806     64.60     62.62    -19.52     20.00
   28.3908     65.21     62.66    -18.95     20.00
   28.4010     64.28     62.70    -19.92     20.00
   28.4111     64.60     62.73    -19.63     20.00
   28.4213     64.34     62.76    -19.92     20.00
   28.4315     64.40     62.77    -19.87     20.00
   28.4416     65.98     62.79    -18.31     20.00
   28.4518     64.73     62.79    -19.56     20.00
   28.4620     65.11     62.80    -19.19     20.00
   28.4721     65.11     62.79    -19.18     20.00
   28.4823     63.96     62.78    -20.32     20.00
   28.4925     64.16     62.76    -20.10     20.00
   28.5026     65.09     62.74    -19.15     20.00
   28.5128     64.04     62.71    -20.17     20.00
   28.5230     64.70     62.67    -19.47     20.00
   28.5331     64.01     62.63    -20.12     20.00
   28.5433     64.66     62.58    -19.42     20.00
   28.5534     64.49     62.53    -19.54     20.00
   28.5636     64.77     62.47    -19.20     20.00
   28.5738     63.77     62.41    -20.14     20.00
   28.5839     63.81     62.34    -20.03     20.00
   28.5941     64.84     62.26    -18.92     20.00
   28.6043     64.49     62.18    -19.19     20.00
   28.6144     63.03     62.09    -20.56     20.00
   28.6246     63.41     62.00    -20.09     20.00
   28.6348     63.68     61.90    -19.72     20.00
   28.6449     62.93     61.80    -20.37     20.00
   28.6551     63.10     61.69    -20.09     20.00
   28.6653     62.77     61.58    -20.31     20.00
   28.6754     62.65     61.46    -20.31     20.00
   28.6856     63.67     61.34    -19.17     20.00
   28.6957     62.66     61.22    -20.06     20.00
   28.7059     62.29     61.09    -20.30     20.00
   28.7161     62.36     60.95    -20.09     20.00
   28.7262     62.29     60.82    -20.03     20.00
   28.7364     60.89     60.67    -21.28     20.00
   28.7466     62.85     60.53    -19.18     20.00
   28.7567     62.30     60.38    -19.58     20.00
   28.7669     61.37     60.23    -20.36     20.00
   28.7771     61.55     60.07    -20.02     20.00
   28.7872     61.04     59.92    -20.38     20.00
   28.7974     61.03     59.75    -20.22     20.00
   28.8076     60.86     59.59    -20.23     20.00
   28.8177     60.88     59.43    -20.05     20.00
   28.8279     60.39     59.26    -20.37     20.00
   28.8381     60.60     59.09    -19.99     20.00
   28.8482     59.94     58.92    -20.48     20.00
   28.8584     58.73     58.74    -21.51     20.00
   28.8685     57.27     58.57    -22.80     20.00
   28.8787     59.92     58.39    -19.97     20.00
   28.8889     58.64     58.21    -21.07     20.00
   28.8990     58.65     58.03    -20.88     20.00
   28.9092     58.62     57.85    -20.73     20.00
   28.9194     57.34     57.66    -21.82     20.00
   28.9295     58.27     57.48    -20.71     20.00
   28.9397     57.98     57.29    -20.81     20.00
   28.9499     57.34     57.11    -21.27     20.00
   28.9600     56.84     56.92    -21.58     20.00
   28.9702     56.97     56.74    -21.27     20.00
   28.9804     56.20     56.55    -21.85     20.00
   28.9905     56.84     56.36    -21.02     20.00
   29.0007     55.65     56.18    -22.03     20.00
   29.0108     56.04     55.99    -21.45     20.00
   29.0210     55.26     55.80    -22.04     20.00
   29.0312     55.60     55.62    -21.52     20.00
   29.0413     55.54     55.43    -21.39     20.00
   29.0515     54.03     55.24    -22.71     20.00
   29.0617     55.55     55.06    -21.01     20.00
   29.0718     52.99     54.87    -23.38     20.00
   29.0820     53.31     54.69    -22.88     20.00
   29.0922     54.19     54.50    -21.81     20.00
   29.1023     53.70     54.32    -22.12     20.00
   29.1125     53.51     54.14    -22.13     20.00
   29.1227     53.32     53.96    -22.14     20.00
   29.1328     53.47     53.78    -21.81     20.00
   29.1430     52.90     53.60    -22.20     20.00
   29.1531     52.96     53.42    -21.96     20.00
   29.1633     51.82     53.24    -22.92     20.00
   29.1735     51.96     53.07    -22.61     20.00
   29.1836     51.96     52.89    -22.43     20.00
   29.1938     52.38     52.72    -21.84     20.00
   29.2040     51.49     52.54    -22.55     20.00
   29.2141     51.80     52.37    -22.07     20.00
   29.2243     50.83     52.20    -22.87     20.00
   29.2345     50.55     52.04    -22.99     20.00
   29.2446     51.38     51.87    -21.99     20.00
   29.2548     50.87     51.70    -22.33     20.00
   29.2650     50.59     51.54    -22.45     20.00
   29.2751     50.32     51.38    -22.56     20.00
   29.2853     49.65     51.22    -23.07     20.00
   29.2955     49.59     51.06    -22.97     20.00
   29.3056     50.70     50.90    -21.70     20.00
   29.3158     49.37     50.74    -22.87     20.00
   29.3259     49.01     50.59    -23.08     20.00
   29.3361     48.65     50.44    -23.29     20.00
   29.3463     48.34     50.28    -23.44     20.00
   29.3564     47.59     50.14    -24.05     20.00
   29.3666     49.00     49.99    -22.49     20.00
   29.3768     48.73     49.84    -22.61     20.00
   29.3869     48.85     49.70    -22.35     20.00
   29.3971     48.16     49.55    -22.89     20.00
   29.4073     47.87     49.41    -23.04     20.00
   29.4174     47.56     49.27    -23.21     20.00
   29.4276     48.75     49.13    -21.88     20.00
   29.4378     47.57     48.99    -22.92     20.00
   29.4479     47.31     48.86    -23.05     20.00
   29.4581     47.88     48.73    -22.35     20.00
   29.4682     46.96     48.60    -23.14     20.00
   29.4784     47.68     48.46    -22.28     20.00
   29.4886     47.76     48.34    -22.08     20.00
   29.4987     45.79     48.21    -23.92     20.00
   29.5089     46.79     48.08    -22.79     20.00
   29.5191     46.67     47.96    -22.79     20.00
   29.5292     46.69     47.84    -22.65     20.00
   29.5394     46.62     47.71    -22.59     20.00
   29.5496     46.52     47.59    -22.57     20.00
   29.5597     45.85     47.48    -23.13     20.00
   29.5699     45.73     47.36    -23.13     20.00
   29.5801     46.11     47.24    -22.63     20.00
   29.5902     45.21     47.13    -23.42     20.00
   29.6004     45.33     47.01    -23.18     20.00
   29.6106     45.97     46.90    -22.43     20.00
   29.6207     46.35     46.79    -21.94     20.00
   29.6309     45.20     46.68    -22.98     20.00
   29.6410     45.89     46.57    -22.18     20.00
   29.6512     45.40     46.47    -22.57     20.00
   29.6614     44.65     46.36    -23.21     20.00
   29.6715     45.80     46.26    -21.96     20.00
   29.6817     45.05     46.15    -22.60     20.00
   29.6919     44.90     46.05    -22.65     20.00
   29.7020     44.62     45.95    -22.83     20.00
   29.7122     44.48     45.85    -22.87     20.00
   29.7224     45.82     45.75    -21.43     20.00
   29.7325     44.62     45.65    -22.53     20.00
   29.7427     44.31     45.55    -22.74     20.00
   29.7529     44.02     45.45    -22.93     20.00
   29.7630     44.53     45.36    -22.33     20.00
   29.7732     43.84     45.26    -22.92     20.00
   29.7833     44.24     45.16    -22.42     20.00
   29.7935     44.26     45.07    -22.31     20.00
   29.8037     43.52     44.98    -22.96     20.00
   29.8138     43.98     44.88    -22.40     20.00
   29.8240     43.53     44.79    -22.76     20.00
   29.8342     44.20     44.70    -22.00     20.00
   29.8443     43.19     44.61    -22.92     20.00
   29.8545     44.10     44.51    -21.91     20.00
   29.8647     43.14     44.42    -22.78     20.00
   29.8748     43.79     44.33    -22.04     20.00
   29.8850     44.23     44.24    -21.51     20.00
   29.8952     44.16     44.15    -21.49     20.00
   29.9053     44.35     44.06    -21.21     20.00
   29.9155     43.59     43.97    -21.88     20.00
   29.9257     44.74     43.89    -20.65     20.00
   29.9358     43.71     43.80    -21.59     20.00
   29.9460     44.14     43.71    -21.07     20.00
   29.9561     43.66     43.62    -21.46     20.00
   29.9663     43.22     43.53    -21.81     20.00
   29.9765     42.02     43.44    -22.92     20.00
   29.9866     43.01     43.36    -21.85     20.00
   29.9968     42.73     43.27    -22.04     20.00
   30.0070     43.37     43.18    -21.31     20.00
   30.0171     43.88     43.09    -20.71     20.00
   30.0273     42.82     43.01    -21.69     20.00
   30.0375     42.16     42.92    -22.26     20.00
   30.0476     42.84     42.83    -21.49     20.00
   30.0578     42.75     42.74    -21.49     20.00
   30.0680     43.48     42.66    -20.68     20.00
   30.0781     42.70     42.57    -21.37     20.00
   30.0883     43.13     42.48    -20.85     20.00
   30.0984     42.83     42.39    -21.06     20.00
   30.1086     41.90     42.30    -21.90     20.00
   30.1188     42.07     42.22    -21.65     20.00
   30.1289     43.25     42.13    -20.38     20.00
   30.1391     41.98     42.04    -21.56     20.00
   30.1493     41.86     41.95    -21.59     20.00
   30.1594     41.26     41.86    -22.10     20.00
   30.1696     41.21     41.78    -22.07     20.00
   30.1798     42.33     41.69    -20.86     20.00
   30.1899     41.95     41.60    -21.15     20.00
   30.2001     41.04     41.51    -21.97     20.00
   30.2103     42.22     41.42    -20.70     20.00
   30.2204     41.60     41.33    -21.23     20.00
   30.2306     41.41     41.24    -21.33     20.00
   30.2408     41.06     41.15    -21.59     20.00
   30.2509     40.76     41.07    -21.81     20.00
   30.2611     41.44     40.98    -21.04     20.00
   30.2712     40.99     40.89    -21.40     20.00
   30.2814     40.99     40.80    -21.31     20.00
   30.2916     40.49     40.71    -21.72     20.00
   30.3017     40.30     40.62    -21.82     20.00
   30.3119     40.70     40.53    -21.33     20.00
   30.3221     41.24     40.44    -20.70     20.00
   30.3322     40.20     40.35    -21.65     20.00
   30.3424     40.20     40.26    -21.56     20.00
   30.3526     40.15     40.17    -21.52     20.00
   30.3627     40.08     40.08    -21.50     20.00
   30.3729     40.00     39.99    -21.49     20.00
   30.3831     40.00     39.90    -21.40     20.00
   30.3932     39.93     39.82    -21.39     20.00
   30.4034     39.69     39.73    -21.54     20.00
   30.4135     39.57     39.64    -21.57     20.00
   30.4237     38.45     39.55    -22.60     20.00
   30.4339     39.02     39.46    -21.94     20.00
   30.4440     39.02     39.37    -21.85     20.00
   30.4542     38.27     39.28    -22.51     20.00
   30.4644     40.38     39.19    -20.31     20.00
   30.4745     38.32     39.10    -22.28     20.00
   30.4847     39.29     39.02    -21.23     20.00
   30.4949     37.66     38.93    -22.77     20.00
   30.5050     39.19     38.84    -21.15     20.00
   30.5152     39.82     38.75    -20.43     20.00
   30.5254     37.38     38.66    -22.78     20.00
   30.5355     37.93     38.58    -22.15     20.00
   30.5457     38.73     38.49    -21.26     20.00
   30.5559     37.38     38.40    -22.52     20.00
   30.5660     37.62     38.32    -22.20     20.00
   30.5762     37.98     38.23    -21.75     20.00
   30.5863     38.72     38.15    -20.93     20.00
   30.5965     37.71     38.06    -21.85     20.00
   30.6067     37.46     37.97    -22.01     20.00
   30.6168     37.99     37.89    -21.40     20.00
   30.6270     37.55     37.80    -21.75     20.00
   30.6372     37.66     37.72    -21.56     20.00
   30.6473     38.15     37.64    -20.99     20.00
   30.6575     37.24     37.55    -21.81     20.00
   30.6677     38.16     37.47    -20.81     20.00
   30.6778     37.58     37.39    -21.31     20.00
   30.6880     37.23     37.30    -21.57     20.00
   30.6982     36.75     37.22    -21.97     20.00
   30.7083     37.57     37.14    -21.07     20.00
   30.7185     37.12     37.06    -21.44     20.00
   30.7286     36.45     36.98    -22.03     20.00
   30.7388     37.81     36.90    -20.59     20.00
   30.7490     36.83     36.82    -21.49     20.00
   30.7591     36.60     36.74    -21.64     20.00
   30.7693     37.67     36.66    -20.49     20.00
   30.7795     36.09     36.58    -21.99     20.00
   30.7896     36.34     36.50    -21.66     20.00
   30.7998     35.74     36.42    -22.18     20.00
   30.8100     36.55     36.34    -21.29     20.00
   30.8201     36.50     36.27    -21.27     20.00
   30.8303     37.20     36.19    -20.49     20.00
   30.8405     35.95     36.12    -21.67     20.00
   30.8506     35.84     36.04    -21.70     20.00
   30.8608     36.07     35.97    -21.40     20.00
   30.8710     35.52     35.89    -21.87     20.00
   30.8811     36.09     35.82    -21.23     20.00
   30.8913     36.30     35.74    -20.94     20.00
   30.9014     35.98     35.67    -21.19     20.00
   30.9116     36.59     35.60    -20.51     20.00
   30.9218     36.06     35.53    -20.97     20.00
   30.9319     35.47     35.46    -21.49     20.00
   30.9421     35.74     35.39    -21.15     20.00
   30.9523     35.82     35.32    -21.00     20.00
   30.9624     34.87     35.25    -21.88     20.00
   30.9726     35.80     35.18    -20.88     20.00
   30.9828     35.23     35.11    -21.38     20.00
   30.9929     35.24     35.04    -21.30     20.00
   31.0031     35.43     34.98    -21.05     20.00
   31.0133     35.77     34.91    -20.64     20.00
   31.0234     35.35     34.84    -20.99     20.00
   31.0336     34.87     34.78    -21.41     20.00
   31.0437     35.43     34.71    -20.78     20.00
   31.0539     35.36     34.65    -20.79     20.00
   31.0641     35.07     34.59    -21.02     20.00
   31.0742     36.23     34.52    -19.79     20.00
   31.0844     34.53     34.46    -21.43     20.00
   31.0946     35.31     34.40    -20.59     20.00
   31.1047     34.12     34.34    -21.72     20.00
   31.1149     33.77     34.28    -22.01     20.00
   31.1251     34.79     34.22    -20.93     20.00
   31.1352     35.38     34.16    -20.28     20.00
   31.1454     34.98     34.10    -20.62     20.00
   31.1556     34.54     34.04    -21.00     20.00
   31.1657     35.15     33.99    -20.34     20.00
   31.1759     34.48     33.93    -20.95     20.00
   31.1860     34.11     33.87    -21.26     20.00
   31.1962     34.91     33.82    -20.41     20.00
   31.2064     34.30     33.76    -20.96     20.00
   31.2165     35.19     33.71    -20.02     20.00
   31.2267     34.98     33.65    -20.17     20.00
   31.2369     33.98     33.60    -21.12     20.00
   31.2470     34.26     33.55    -20.79     20.00
   31.2572     34.27     33.50    -20.73     20.00
   31.2674     33.79     33.45    -21.16     20.00
   31.2775     34.30     33.40    -20.60     20.00
   31.2877     34.17     33.35    -20.68     20.00
   31.2979     34.42     33.30    -20.38     20.00
   31.3080     33.91     33.25    -20.84     20.00
   31.3182     34.30     33.20    -20.40     20.00
   31.3284     33.20     33.15    -21.45     20.00
   31.3385     33.50     33.11    -21.11     20.00
   31.3487     34.76     33.06    -19.80     20.00
   31.3588     33.66     33.02    -20.86     20.00
   31.3690     34.02     32.97    -20.45     20.00
   31.3792     34.06     32.93    -20.37     20.00
   31.3893     34.67     32.88    -19.71     20.00
   31.3995     34.49     32.84    -19.85     20.00
   31.4097     34.05     32.80    -20.25     20.00
   31.4198     33.27     32.76    -20.99     20.00
   31.4300     33.04     32.72    -21.18     20.00
   31.4402     34.02     32.68    -20.16     20.00
   31.4503     33.72     32.64    -20.42     20.00
   31.4605     33.90     32.60    -20.20     20.00
   31.4707     33.96     32.56    -20.10     20.00
   31.4808     32.91     32.52    -21.11     20.00
   31.4910     33.96     32.49    -20.03     20.00
   31.5011     33.87     32.45    -20.08     20.00
   31.5113     33.45     32.42    -20.47     20.00
   31.5215     33.90     32.38    -19.98     20.00
   31.5316     34.04     32.35    -19.81     20.00
   31.5418     33.98     32.31    -19.83     20.00
   31.5520     33.99     32.28    -19.79     20.00
   31.5621     33.30     32.25    -20.45     20.00
   31.5723     32.95     32.22    -20.77     20.00
   31.5825     33.99     32.18    -19.69     20.00
   31.5926     33.38     32.15    -20.27     20.00
   31.6028     33.18     32.12    -20.44     20.00
   31.6130     34.05     32.09    -19.54     20.00
   31.6231     33.40     32.07    -20.17     20.00
   31.6333     33.51     32.04    -20.03     20.00
   31.6435     32.99     32.01    -20.52     20.00
   31.6536     33.71     31.98    -19.77     20.00
   31.6638     33.48     31.96    -19.98     20.00
   31.6739     33.74     31.93    -19.69     20.00
   31.6841     32.87     31.91    -20.54     20.00
   31.6943     33.46     31.88    -19.92     20.00
   31.7044     33.84     31.86    -19.52     20.00
   31.7146     33.10     31.84    -20.24     20.00
   31.7248     33.20     31.81    -20.11     20.00
   31.7349     33.20     31.79    -20.09     20.00
   31.7451     32.48     31.77    -20.79     20.00
   31.7553     33.85     31.75    -19.40     20.00
   31.7654     33.10     31.73    -20.13     20.00
   31.7756     33.01     31.71    -20.20     20.00
   31.7858     32.60     31.69    -20.59     20.00
   31.7959     33.01     31.67    -20.16     20.00
   31.8061     33.17     31.66    -19.99     20.00
   31.8162     32.49     31.64    -20.65     20.00
   31.8264     32.60     31.62    -20.52     20.00
   31.8366     33.12     31.61    -19.99     20.00
   31.8467     33.02     31.59    -20.07     20.00
   31.8569     33.57     31.58    -19.51     20.00
   31.8671     32.40     31.56    -20.66     20.00
   31.8772     32.52     31.55    -20.53     20.00
   31.8874     33.40     31.54    -19.64     20.00
   31.8976     34.19     31.52    -18.83     20.00
   31.9077     32.55     31.51    -20.46     20.00
   31.9179     32.40     31.50    -20.60     20.00
   31.9281     32.61     31.49    -20.38     20.00
   31.9382     32.65     31.48    -20.33     20.00
   31.9484     33.02     31.47    -19.95     20.00
   31.9586     32.88     31.46    -20.08     20.00
   31.9687     32.68     31.45    -20.27     20.00
   31.9789     33.43     31.45    -19.52     20.00
   31.9890     33.22     31.44    -19.72     20.00
   31.9992     32.62     31.43    -20.31     20.00
   32.0094     32.23     31.43    -20.70     20.00
   32.0195     33.22     31.42    -19.70     20.00
   32.0297     32.38     31.42    -20.54     20.00
   32.0399     32.48     31.41    -20.43     20.00
   32.0500     32.51     31.41    -20.40     20.00
   32.0602     32.49     31.40    -20.41     20.00
   32.0704     31.93     31.40    -20.97     20.00
   32.0805     34.01     31.40    -18.89     20.00
   32.0907     32.44     31.40    -20.46     20.00
   32.1009     32.62     31.39    -20.27     20.00
   32.1110     32.77     31.39    -20.12     20.00
   32.1212     32.10     31.39    -20.79     20.00
   32.1313     32.62     31.39    -20.27     20.00
   32.1415     33.13     31.39    -19.76     20.00
   32.1517     33.20     31.39    -19.69     20.00
   32.1618     33.02     31.39    -19.87     20.00
   32.1720     33.01     31.40    -19.89     20.00
   32.1822     32.08     31.40    -20.82     20.00
   32.1923     33.76     31.40    -19.14     20.00
   32.2025     32.93     31.40    -19.97     20.00
   32.2127     32.90     31.41    -20.01     20.00
   32.2228     32.68     31.41    -20.23     20.00
   32.2330     32.40     31.42    -20.52     20.00
   32.2432     31.88     31.42    -21.04     20.00
   32.2533     32.28     31.43    -20.65     20.00
   32.2635     33.54     31.43    -19.39     20.00
   32.2737     32.38     31.44    -20.56     20.00
   32.2838     32.10     31.45    -20.85     20.00
   32.2940     32.74     31.45    -20.21     20.00
   32.3041     32.57     31.46    -20.39     20.00
   32.3143     32.15     31.47    -20.82     20.00
   32.3245     32.76     31.48    -20.22     20.00
   32.3346     33.42     31.49    -19.57     20.00
   32.3448     32.17     31.49    -20.82     20.00
   32.3550     32.49     31.50    -20.51     20.00
   32.3651     32.55     31.51    -20.46     20.00
   32.3753     32.98     31.52    -20.04     20.00
   32.3855     32.83     31.53    -20.20     20.00
   32.3956     32.70     31.54    -20.34     20.00
   32.4058     32.82     31.56    -20.24     20.00
   32.4160     32.68     31.57    -20.39     20.00
   32.4261     32.89     31.58    -20.19     20.00
   32.4363     32.07     31.59    -21.02     20.00
   32.4464     32.66     31.60    -20.44     20.00
   32.4566     31.83     31.62    -21.29     20.00
   32.4668     32.33     31.63    -20.80     20.00
   32.4769     32.39     31.64    -20.75     20.00
   32.4871     32.02     31.65    -21.13     20.00
   32.4973     32.91     31.67    -20.26     20.00
   32.5074     33.39     31.68    -19.79     20.00
   32.5176     32.07     31.70    -21.13     20.00
   32.5278     32.47     31.71    -20.74     20.00
   32.5379     32.46     31.73    -20.77     20.00
   32.5481     32.04     31.74    -21.20     20.00
   32.5583     32.35     31.75    -20.90     20.00
   32.5684     31.84     31.77    -21.43     20.00
   32.5786     31.40     31.79    -21.89     20.00
   32.5888     32.53     31.80    -20.77     20.00
   32.5989     32.87     31.82    -20.45     20.00
   32.6091     32.71     31.83    -20.62     20.00
   32.6192     32.39     31.85    -20.96     20.00
   32.6294     32.15     31.86    -21.21     20.00
   32.6396     32.20     31.88    -21.18     20.00
   32.6497     32.24     31.90    -21.16     20.00
   32.6599     33.07     31.91    -20.34     20.00
   32.6701     32.47     31.93    -20.96     20.00
   32.6802     33.07     31.94    -20.37     20.00
   32.6904     32.62     31.96    -20.84     20.00
   32.7006     31.10     31.98    -22.38     20.00
   32.7107     32.06     31.99    -21.43     20.00
   32.7209     32.88     32.01    -20.63     20.00
   32.7311     31.29     32.02    -22.23     20.00
   32.7412     32.32     32.04    -21.22     20.00
   32.7514     33.28     32.06    -20.28     20.00
   32.7615     31.76     32.07    -21.81     20.00
   32.7717     33.29     32.09    -20.30     20.00
   32.7819     32.85     32.10    -20.75     20.00
   32.7920     31.30     32.12    -22.32     20.00
   32.8022     32.45     32.13    -21.18     20.00
   32.8124     33.28     32.15    -20.37     20.00
   32.8225     31.62     32.16    -22.04     20.00
   32.8327     32.61     32.18    -21.07     20.00
   32.8429     31.98     32.19    -21.71     20.00
   32.8530     31.89     32.21    -21.82     20.00
   32.8632     31.88     32.22    -21.84     20.00
   32.8734     32.08     32.24    -21.66     20.00
   32.8835     32.60     32.25    -21.15     20.00
   32.8937     32.19     32.26    -21.57     20.00
   32.9039     32.28     32.28    -21.50     20.00
   32.9140     31.77     32.29    -22.02     20.00
   32.9242     31.45     32.30    -22.35     20.00
   32.9343     32.54     32.31    -21.27     20.00
   32.9445     32.66     32.32    -21.16     20.00
   32.9547     31.98     32.33    -21.85     20.00
   32.9648     32.26     32.35    -21.59     20.00
   32.9750     32.32     32.36    -21.54     20.00
   32.9852     31.95     32.37    -21.92     20.00
   32.9953     32.20     32.37    -21.67     20.00
   33.0055     32.41     32.38    -21.47     20.00
   33.0157     32.48     32.39    -21.41     20.00
   33.0258     31.38     32.40    -22.52     20.00
   33.0360     31.82     32.41    -22.09     20.00
   33.0462     32.75     32.41    -21.16     20.00
   33.0563     33.01     32.42    -20.91     20.00
   33.0665     32.50     32.42    -21.42     20.00
   33.0766     31.95     32.43    -21.98     20.00
   33.0868     31.85     32.43    -22.08     20.00
   33.0970     32.18     32.43    -21.75     20.00
   33.1071     32.83     32.44    -21.11     20.00
   33.1173     31.55     32.44    -22.39     20.00
   33.1275     32.80     32.44    -21.14     20.00
   33.1376     32.19     32.44    -21.75     20.00
   33.1478     32.60     32.44    -21.34     20.00
   33.1580     32.30     32.44    -21.64     20.00
   33.1681     32.51     32.44    -21.43     20.00
   33.1783     31.48     32.43    -22.45     20.00
   33.1885     31.90     32.43    -22.03     20.00
   33.1986     32.93     32.43    -21.00     20.00
   33.2088     32.91     32.42    -21.01     20.00
   33.2189     31.96     32.42    -21.96     20.00
   33.2291     32.22     32.41    -21.69     20.00
   33.2393     32.18     32.40    -21.72     20.00
   33.2494     32.35     32.39    -21.54     20.00
   33.2596     33.29     32.38    -20.59     20.00
   33.2698     32.49     32.37    -21.38     20.00
   33.2799     32.87     32.36    -20.99     20.00
   33.2901     32.90     32.35    -20.95     20.00
   33.3003     32.35     32.34    -21.49     20.00
   33.3104     32.62     32.33    -21.21     20.00
   33.3206     32.18     32.31    -21.63     20.00
   33.3308     32.52     32.30    -21.28     20.00
   33.3409     32.54     32.28    -21.24     20.00
   33.3511     33.44     32.26    -20.32     20.00
   33.3613     32.77     32.25    -20.98     20.00
   33.3714     32.45     32.23    -21.28     20.00
   33.3816     32.46     32.21    -21.25     20.00
   33.3917     33.09     32.19    -20.60     20.00
   33.4019     32.62     32.17    -21.05     20.00
   33.4121     32.18     32.15    -21.47     20.00
   33.4222     32.27     32.13    -21.36     20.00
   33.4324     32.72     32.10    -20.88     20.00
   33.4426     32.32     32.08    -21.26     20.00
   33.4527     33.20     32.05    -20.35     20.00
   33.4629     32.52     32.03    -21.01     20.00
   33.4731     32.28     32.00    -21.22     20.00
   33.4832     32.78     31.98    -20.70     20.00
   33.4934     32.44     31.95    -21.01     20.00
   33.5036     32.19     31.92    -21.23     20.00
   33.5137     32.37     31.89    -21.02     20.00
   33.5239     32.71     31.86    -20.65     20.00
   33.5340     32.46     31.83    -20.87     20.00
   33.5442     32.57     31.80    -20.73     20.00
   33.5544     32.45     31.77    -20.82     20.00
   33.5645     32.30     31.73    -20.93     20.00
   33.5747     31.68     31.70    -21.52     20.00
   33.5849     32.04     31.67    -21.13     20.00
   33.5950     31.79     31.63    -21.34     20.00
   33.6052     30.88     31.60    -22.22     20.00
   33.6154     32.05     31.56    -21.01     20.00
   33.6255     31.98     31.53    -21.05     20.00
   33.6357     30.70     31.49    -22.29     20.00
   33.6459     31.92     31.45    -21.03     20.00
   33.6560     32.18     31.42    -20.74     20.00
   33.6662     31.78     31.38    -21.10     20.00
   33.6764     31.71     31.34    -21.13     20.00
   33.6865     31.15     31.30    -21.65     20.00
   33.6967     30.85     31.26    -21.91     20.00
   33.7068     32.01     31.22    -20.71     20.00
   33.7170     30.61     31.18    -22.07     20.00
   33.7272     30.82     31.14    -21.82     20.00
   33.7373     31.62     31.10    -20.98     20.00
   33.7475     30.57     31.06    -21.99     20.00
   33.7577     31.01     31.02    -21.51     20.00
   33.7678     30.44     30.98    -22.04     20.00
   33.7780     30.11     30.94    -22.33     20.00
   33.7882     29.87     30.89    -22.52     20.00
   33.7983     30.78     30.85    -21.57     20.00
   33.8085     30.70     30.81    -21.61     20.00
   33.8187     30.43     30.77    -21.84     20.00
   33.8288     30.09     30.72    -22.13     20.00
   33.8390     30.69     30.68    -21.49     20.00
   33.8491     30.27     30.64    -21.87     20.00
   33.8593     30.23     30.59    -21.86     20.00
   33.8695     29.37     30.55    -22.68     20.00
   33.8796     29.52     30.50    -22.48     20.00
   33.8898     29.62     30.46    -22.34     20.00
   33.9000     29.12     30.41    -22.79     20.00
   33.9101     29.73     30.37    -22.14     20.00
   33.9203     30.23     30.33    -21.60     20.00
   33.9305     29.37     30.28    -22.41     20.00
   33.9406     29.26     30.24    -22.48     20.00
   33.9508     29.71     30.19    -21.98     20.00
   33.9610     29.30     30.15    -22.35     20.00
   33.9711     28.84     30.10    -22.76     20.00
   33.9813     29.38     30.06    -22.18     20.00
   33.9915     29.10     30.01    -22.41     20.00
   34.0016     28.15     29.97    -23.32     20.00
   34.0118     29.31     29.92    -22.11     20.00
   34.0219     28.49     29.88    -22.89     20.00
   34.0321     29.52     29.83    -21.81     20.00
   34.0423     28.85     29.79    -22.44     20.00
   34.0524     29.09     29.75    -22.16     20.00
   34.0626     28.71     29.70    -22.49     20.00
   34.0728     29.21     29.66    -21.95     20.00
   34.0829     28.40     29.61    -22.71     20.00
   34.0931     28.38     29.57    -22.69     20.00
   34.1033     28.59     29.52    -22.43     20.00
   34.1134     27.22     29.48    -23.76     20.00
   34.1236     28.71     29.44    -22.23     20.00
   34.1338     28.14     29.39    -22.75     20.00
   34.1439     27.79     29.35    -23.06     20.00
   34.1541     28.21     29.31    -22.60     20.00
   34.1642     27.88     29.26    -22.88     20.00
   34.1744     28.14     29.22    -22.58     20.00
   34.1846     28.32     29.18    -22.36     20.00
   34.1947     27.81     29.13    -22.82     20.00
   34.2049     27.51     29.09    -23.08     20.00
   34.2151     27.70     29.05    -22.85     20.00
   34.2252     27.98     29.01    -22.53     20.00
   34.2354     28.07     28.96    -22.39     20.00
   34.2456     27.96     28.92    -22.46     20.00
   34.2557     27.86     28.88    -22.52     20.00
   34.2659     27.81     28.84    -22.53     20.00
   34.2761     28.01     28.80    -22.29     20.00
   34.2862     27.54     28.76    -22.72     20.00
   34.2964     27.63     28.71    -22.58     20.00
   34.3066     26.76     28.67    -23.41     20.00
   34.3167     27.09     28.63    -23.04     20.00
   34.3269     27.00     28.59    -23.09     20.00
   34.3370     27.30     28.55    -22.75     20.00
   34.3472     26.91     28.51    -23.10     20.00
   34.3574     27.50     28.47    -22.47     20.00
   34.3675     26.94     28.43    -22.99     20.00
   34.3777     27.30     28.39    -22.59     20.00
   34.3879     27.69     28.36    -22.17     20.00
   34.3980     27.02     28.32    -22.80     20.00
   34.4082     26.77     28.28    -23.01     20.00
   34.4184     27.38     28.24    -22.36     20.00
   34.4285     27.23     28.20    -22.47     20.00
   34.4387     27.02     28.16    -22.64     20.00
   34.4489     26.91     28.13    -22.72     20.00
   34.4590     27.37     28.09    -22.22     20.00
   34.4692     26.16     28.05    -23.39     20.00
   34.4793     27.21     28.02    -22.31     20.00
   34.4895     27.21     27.98    -22.27     20.00
   34.4997     27.20     27.94    -22.24     20.00
   34.5098     26.85     27.91    -22.56     20.00
   34.5200     27.07     27.87    -22.30     20.00
   34.5302     27.21     27.84    -22.13     20.00
   34.5403     26.95     27.80    -22.35     20.00
   34.5505     27.02     27.77    -22.25     20.00
   34.5607     26.48     27.73    -22.75     20.00
   34.5708     27.40     27.70    -21.80     20.00
   34.5810     26.62     27.66    -22.54     20.00
   34.5912     26.58     27.63    -22.55     20.00
   34.6013     26.70     27.60    -22.40     20.00
   34.6115     26.93     27.56    -22.13     20.00
   34.6217     26.98     27.53    -22.05     20.00
   34.6318     26.85     27.50    -22.15     20.00
   34.6420     26.90     27.47    -22.07     20.00
   34.6521     26.63     27.43    -22.30     20.00
   34.6623     26.32     27.40    -22.58     20.00
   34.6725     26.69     27.37    -22.18     20.00
   34.6826     26.38     27.34    -22.46     20.00
   34.6928     26.70     27.31    -22.11     20.00
   34.7030     26.15     27.28    -22.63     20.00
   34.7131     26.22     27.25    -22.53     20.00
   34.7233     26.18     27.22    -22.54     20.00
   34.7335     26.52     27.19    -22.17     20.00
   34.7436     25.98     27.16    -22.68     20.00
   34.7538     27.07     27.13    -21.56     20.00
   34.7640     25.55     27.10    -23.05     20.00
   34.7741     25.77     27.07    -22.80     20.00
   34.7843     26.40     27.04    -22.14     20.00
   34.7944     25.54     27.01    -22.97     20.00
   34.8046     26.23     26.98    -22.25     20.00
   34.8148     25.92     26.95    -22.53     20.00
   34.8249     27.01     26.93    -21.42     20.00
   34.8351     25.53     26.90    -22.87     20.00
   34.8453     25.93     26.87    -22.44     20.00
   34.8554     26.05     26.84    -22.29     20.00
   34.8656     25.82     26.82    -22.50     20.00
   34.8758     26.44     26.79    -21.85     20.00
   34.8859     25.71     26.77    -22.56     20.00
   34.8961     26.01     26.74    -22.23     20.00
   34.9063     26.26     26.71    -21.95     20.00
   34.9164     26.18     26.69    -22.01     20.00
   34.9266     26.03     26.66    -22.13     20.00
   34.9367     25.55     26.64    -22.59     20.00
   34.9469     25.93     26.61    -22.18     20.00
   34.9571     25.41     26.59    -22.68     20.00
   34.9672     26.01     26.56    -22.05     20.00
   34.9774     25.93     26.54    -22.11     20.00
   34.9876     25.85     26.52    -22.17     20.00
   34.9977     25.99     26.49    -22.00     20.00
   35.0079     26.06     26.47    -21.91     20.00
   35.0181     25.99     26.45    -21.96     20.00
   35.0282     25.37     26.42    -22.55     20.00
   35.0384     25.05     26.40    -22.85     20.00
   35.0486     26.15     26.38    -21.73     20.00
   35.0587     25.39     26.36    -22.47     20.00
   35.0689     26.22     26.33    -21.61     20.00
   35.0791     25.97     26.31    -21.84     20.00
   35.0892     25.99     26.29    -21.80     20.00
   35.0994     25.60     26.27    -22.17     20.00
   35.1095     25.91     26.25    -21.84     20.00
   35.1197     25.16     26.23    -22.57     20.00
   35.1299     25.42     26.21    -22.29     20.00
   35.1400     25.73     26.19    -21.96     20.00
   35.1502     25.69     26.17    -21.98     20.00
   35.1604     25.80     26.15    -21.85     20.00
   35.1705     25.24     26.13    -22.39     20.00
   35.1807     25.30     26.11    -22.31     20.00
   35.1909     26.21     26.09    -21.38     20.00
   35.2010     25.47     26.07    -22.10     20.00
   35.2112     25.69     26.05    -21.86     20.00
   35.2214     25.58     26.03    -21.95     20.00
   35.2315     25.73     26.01    -21.78     20.00
   35.2417     25.79     25.99    -21.70     20.00
   35.2518     24.77     25.97    -22.70     20.00
   35.2620     26.12     25.95    -21.33     20.00
   35.2722     25.65     25.94    -21.79     20.00
   35.2823     25.85     25.92    -21.57     20.00
   35.2925     25.54     25.90    -21.86     20.00
   35.3027     24.57     25.88    -22.81     20.00
   35.3128     25.11     25.87    -22.26     20.00
   35.3230     25.30     25.85    -22.05     20.00
   35.3332     25.08     25.83    -22.25     20.00
   35.3433     25.87     25.82    -21.45     20.00
   35.3535     25.45     25.80    -21.85     20.00
   35.3637     25.09     25.78    -22.19     20.00
   35.3738     25.15     25.77    -22.12     20.00
   35.3840     25.46     25.75    -21.79     20.00
   35.3942     25.73     25.73    -21.50     20.00
   35.4043     25.62     25.72    -21.60     20.00
   35.4145     24.93     25.70    -22.27     20.00
   35.4246     26.07     25.69    -21.12     20.00
   35.4348     25.28     25.67    -21.89     20.00
   35.4450     24.65     25.66    -22.51     20.00
   35.4551     25.90     25.64    -21.24     20.00
   35.4653     25.61     25.62    -21.51     20.00
   35.4755     25.16     25.61    -21.95     20.00
   35.4856     25.75     25.60    -21.35     20.00
   35.4958     25.12     25.58    -21.96     20.00
   35.5060     25.57     25.57    -21.50     20.00
   35.5161     25.01     25.55    -22.04     20.00
   35.5263     25.39     25.54    -21.65     20.00
   35.5365     25.16     25.52    -21.86     20.00
   35.5466     25.31     25.51    -21.70     20.00
   35.5568     25.00     25.50    -22.00     20.00
   35.5669     24.96     25.48    -22.02     20.00
   35.5771     25.40     25.47    -21.57     20.00
   35.5873     24.87     25.46    -22.09     20.00
   35.5974     25.37     25.44    -21.57     20.00
   35.6076     25.19     25.43    -21.74     20.00
   35.6178     24.97     25.42    -21.95     20.00
   35.6279     25.15     25.40    -21.75     20.00
   35.6381     25.03     25.39    -21.86     20.00
   35.6483     24.86     25.38    -22.02     20.00
   35.6584     24.99     25.36    -21.87     20.00
   35.6686     24.65     25.35    -22.20     20.00
   35.6788     25.15     25.34    -21.69     20.00
   35.6889     25.46     25.33    -21.37     20.00
   35.6991     24.89     25.31    -21.92     20.00
   35.7093     25.45     25.30    -21.35     20.00
   35.7194     24.51     25.29    -22.28     20.00
   35.7296     24.75     25.28    -22.03     20.00
   35.7397     25.01     25.27    -21.76     20.00
   35.7499     26.24     25.26    -20.52     20.00
   35.7601     24.79     25.24    -21.95     20.00
   35.7702     25.17     25.23    -21.56     20.00
   35.7804     25.43     25.22    -21.29     20.00
   35.7906     25.07     25.21    -21.64     20.00
   35.8007     24.96     25.20    -21.74     20.00
   35.8109     25.39     25.19    -21.30     20.00
   35.8211     24.66     25.18    -22.02     20.00
   35.8312     24.87     25.16    -21.79     20.00
   35.8414     24.63     25.15    -22.02     20.00
   35.8516     25.15     25.14    -21.49     20.00
   35.8617     25.27     25.13    -21.36     20.00
   35.8719     25.41     25.12    -21.21     20.00
   35.8820     24.04     25.11    -22.57     20.00
   35.8922     25.21     25.10    -21.39     20.00
   35.9024     25.05     25.09    -21.54     20.00
   35.9125     24.73     25.08    -21.85     20.00
   35.9227     25.22     25.07    -21.35     20.00
   35.9329     24.81     25.06    -21.75     20.00
   35.9430     24.79     25.05    -21.76     20.00
   35.9532     24.72     25.04    -21.82     20.00
   35.9634     24.34     25.03    -22.19     20.00
   35.9735     24.87     25.02    -21.65     20.00
   35.9837     25.12     25.01    -21.39     20.00
   35.9939     25.39     25.00    -21.11     20.00
