 => TITLE: 
 => Data file name: C:\Users\stefano\Nextcloud2\projects\programming\python\xrd-winplotr\folder\G311\G311--5-40-0.01-1000ms.xy
 => Instrm        :    1
 => Lambda(1&2)   :   1.54060  1.54060
 => Numb.of.points:      2913
 => Numb.of.peaks :         8
    2Theta     Yobs     Ycalc  Yobs-Ycal    Backg    Bragg     Posr  Intensity   FWHM    Eta
    6.5168     22.80     26.63    -22.66     22.75   18.5531      1.66     173.25  1.0626  0.4438
    6.5270     23.49     26.64    -21.98     22.75   20.3518      1.66      73.62  1.5482  0.4438
    6.5371     23.25     26.65    -22.23     22.75   22.3330      1.66      89.09  1.1967  0.4438
    6.5473     23.01     26.66    -22.48     22.75   28.5314      1.66      39.83  1.6029  0.4438
    6.5575     22.77     26.67    -22.73     22.75   29.9342      1.66       5.00  1.7361  0.4438
    6.5676     23.21     26.67    -22.29     22.75   33.2759      1.66       5.23  1.7361  0.4438
    6.5778     23.14     26.68    -22.37     22.75   17.0000      1.66      68.25  2.1174  0.4438
    6.5880     23.27     26.69    -22.25     22.75   20.0919      1.66     876.62 10.7256  0.4438
    6.5981     23.45     26.70    -22.08     22.75
    6.6083     23.24     26.71    -22.30     22.75
    6.6185     22.61     26.72    -22.94     22.75
    6.6286     22.59     26.73    -22.97     22.75
    6.6388     23.27     26.74    -22.30     22.76
    6.6489     23.49     26.74    -22.08     22.76
    6.6591     22.15     26.75    -23.43     22.76
    6.6693     22.82     26.76    -22.77     22.76
    6.6794     22.98     26.77    -22.62     22.76
    6.6896     23.16     26.78    -22.45     22.76
    6.6998     23.42     26.79    -22.20     22.76
    6.7099     23.56     26.80    -22.07     22.76
    6.7201     23.34     26.81    -22.30     22.76
    6.7303     23.41     26.82    -22.24     22.76
    6.7404     23.99     26.83    -21.67     22.76
    6.7506     23.49     26.84    -22.18     22.76
    6.7608     22.96     26.84    -22.71     22.76
    6.7709     23.54     26.85    -22.14     22.76
    6.7811     23.64     26.86    -22.05     22.76
    6.7913     23.78     26.87    -21.92     22.77
    6.8014     23.24     26.88    -22.47     22.77
    6.8116     23.94     26.89    -21.78     22.77
    6.8217     23.58     26.90    -22.15     22.77
    6.8319     23.24     26.91    -22.50     22.77
    6.8421     23.89     26.92    -21.86     22.77
    6.8522     23.48     26.93    -22.28     22.77
    6.8624     23.32     26.94    -22.45     22.77
    6.8726     23.09     26.95    -22.69     22.77
    6.8827     23.68     26.96    -22.11     22.77
    6.8929     22.52     26.97    -23.28     22.77
    6.9031     23.31     26.98    -22.50     22.77
    6.9132     23.98     26.99    -21.84     22.77
    6.9234     23.76     27.00    -22.07     22.77
    6.9336     23.12     27.01    -22.72     22.78
    6.9437     23.73     27.02    -22.12     22.78
    6.9539     23.96     27.03    -21.90     22.78
    6.9640     23.18     27.04    -22.69     22.78
    6.9742     23.48     27.05    -22.40     22.78
    6.9844     23.58     27.06    -22.31     22.78
    6.9945     23.30     27.07    -22.60     22.78
    7.0047     23.45     27.08    -22.46     22.78
    7.0149     24.01     27.09    -21.91     22.78
    7.0250     23.73     27.10    -22.20     22.78
    7.0352     23.55     27.11    -22.39     22.78
    7.0454     23.49     27.12    -22.46     22.78
    7.0555     23.71     27.13    -22.25     22.78
    7.0657     24.01     27.14    -21.96     22.78
    7.0759     23.91     27.15    -22.07     22.78
    7.0860     23.13     27.16    -22.86     22.79
    7.0962     24.09     27.17    -21.91     22.79
    7.1064     24.22     27.18    -21.79     22.79
    7.1165     22.99     27.19    -23.03     22.79
    7.1267     23.65     27.20    -22.38     22.79
    7.1368     24.29     27.21    -21.75     22.79
    7.1470     23.58     27.22    -22.47     22.79
    7.1572     23.16     27.23    -22.90     22.79
    7.1673     24.00     27.24    -22.07     22.79
    7.1775     23.99     27.25    -22.09     22.79
    7.1877     24.13     27.26    -21.96     22.79
    7.1978     24.12     27.27    -21.98     22.79
    7.2080     23.49     27.28    -22.62     22.79
    7.2182     24.49     27.29    -21.63     22.79
    7.2283     24.13     27.30    -22.00     22.80
    7.2385     24.64     27.32    -21.51     22.80
    7.2487     24.27     27.33    -21.89     22.80
    7.2588     24.09     27.34    -22.08     22.80
    7.2690     23.40     27.35    -22.78     22.80
    7.2791     24.35     27.36    -21.84     22.80
    7.2893     23.68     27.37    -22.52     22.80
    7.2995     23.46     27.38    -22.75     22.80
    7.3096     25.50     27.39    -20.72     22.80
    7.3198     24.24     27.40    -21.99     22.80
    7.3300     24.07     27.41    -22.17     22.80
    7.3401     24.30     27.43    -21.96     22.80
    7.3503     24.85     27.44    -21.42     22.80
    7.3605     24.44     27.45    -21.84     22.80
    7.3706     23.99     27.46    -22.30     22.80
    7.3808     23.57     27.47    -22.73     22.81
    7.3910     23.37     27.48    -22.94     22.81
    7.4011     24.43     27.49    -21.89     22.81
    7.4113     24.46     27.51    -21.88     22.81
    7.4215     24.26     27.52    -22.09     22.81
    7.4316     25.22     27.53    -21.14     22.81
    7.4418     23.76     27.54    -22.61     22.81
    7.4519     23.95     27.55    -22.43     22.81
    7.4621     24.31     27.56    -22.08     22.81
    7.4723     24.48     27.57    -21.92     22.81
    7.4824     23.62     27.59    -22.80     22.81
    7.4926     23.85     27.60    -22.58     22.81
    7.5028     25.01     27.61    -21.43     22.81
    7.5129     24.40     27.62    -22.05     22.81
    7.5231     25.06     27.63    -21.40     22.82
    7.5333     24.84     27.65    -21.64     22.82
    7.5434     25.43     27.66    -21.06     22.82
    7.5536     25.54     27.67    -20.96     22.82
    7.5638     24.43     27.68    -22.08     22.82
    7.5739     24.89     27.69    -21.63     22.82
    7.5841     24.49     27.71    -22.05     22.82
    7.5942     25.36     27.72    -21.19     22.82
    7.6044     25.01     27.73    -21.55     22.82
    7.6146     25.46     27.74    -21.11     22.82
    7.6247     24.99     27.76    -21.60     22.82
    7.6349     24.45     27.77    -22.15     22.82
    7.6451     24.41     27.78    -22.20     22.82
    7.6552     25.22     27.79    -21.40     22.82
    7.6654     24.40     27.81    -22.24     22.83
    7.6756     24.81     27.82    -21.84     22.83
    7.6857     24.86     27.83    -21.80     22.83
    7.6959     24.35     27.84    -22.32     22.83
    7.7061     24.51     27.86    -22.18     22.83
    7.7162     24.73     27.87    -21.97     22.83
    7.7264     25.05     27.88    -21.66     22.83
    7.7365     25.35     27.89    -21.38     22.83
    7.7467     24.99     27.91    -21.75     22.83
    7.7569     24.59     27.92    -22.16     22.83
    7.7670     24.60     27.93    -22.16     22.83
    7.7772     24.93     27.95    -21.85     22.83
    7.7874     25.22     27.96    -21.57     22.83
    7.7975     24.68     27.97    -22.12     22.83
    7.8077     25.49     27.99    -21.33     22.83
    7.8179     25.37     28.00    -21.46     22.84
    7.8280     24.99     28.01    -21.85     22.84
    7.8382     25.72     28.03    -21.14     22.84
    7.8484     24.91     28.04    -21.96     22.84
    7.8585     25.03     28.05    -21.85     22.84
    7.8687     25.91     28.07    -20.99     22.84
    7.8789     24.64     28.08    -22.27     22.84
    7.8890     25.66     28.09    -21.26     22.84
    7.8992     25.60     28.11    -21.34     22.84
    7.9093     25.67     28.12    -21.28     22.84
    7.9195     25.34     28.13    -21.62     22.84
    7.9297     26.20     28.15    -20.78     22.84
    7.9398     24.93     28.16    -22.06     22.84
    7.9500     26.45     28.18    -20.56     22.84
    7.9602     25.79     28.19    -21.23     22.85
    7.9703     25.52     28.20    -21.51     22.85
    7.9805     25.37     28.22    -21.68     22.85
    7.9907     26.27     28.23    -20.79     22.85
    8.0008     25.78     28.25    -21.30     22.85
    8.0110     25.68     28.26    -21.41     22.85
    8.0212     26.69     28.27    -20.41     22.85
    8.0313     25.65     28.29    -21.47     22.85
    8.0415     25.59     28.30    -21.54     22.85
    8.0516     25.67     28.32    -21.48     22.85
    8.0618     26.09     28.33    -21.07     22.85
    8.0720     26.02     28.35    -21.16     22.85
    8.0821     25.51     28.36    -21.68     22.85
    8.0923     25.49     28.38    -21.72     22.85
    8.1025     25.51     28.39    -21.71     22.85
    8.1126     26.29     28.40    -20.94     22.86
    8.1228     25.99     28.42    -21.26     22.86
    8.1330     25.68     28.43    -21.58     22.86
    8.1431     26.21     28.45    -21.07     22.86
    8.1533     25.90     28.46    -21.39     22.86
    8.1635     25.84     28.48    -21.47     22.86
    8.1736     26.96     28.49    -20.36     22.86
    8.1838     25.25     28.51    -22.09     22.86
    8.1940     26.02     28.52    -21.33     22.86
    8.2041     25.90     28.54    -21.47     22.86
    8.2143     26.74     28.55    -20.64     22.86
    8.2244     26.51     28.57    -20.89     22.86
    8.2346     26.80     28.59    -20.62     22.86
    8.2448     26.71     28.60    -20.72     22.86
    8.2549     26.29     28.62    -21.16     22.87
    8.2651     27.02     28.63    -20.44     22.87
    8.2753     26.34     28.65    -21.14     22.87
    8.2854     26.23     28.66    -21.26     22.87
    8.2956     26.91     28.68    -20.60     22.87
    8.3058     26.26     28.69    -21.26     22.87
    8.3159     26.34     28.71    -21.20     22.87
    8.3261     27.73     28.73    -19.83     22.87
    8.3363     27.16     28.74    -20.41     22.87
    8.3464     26.76     28.76    -20.83     22.87
    8.3566     26.87     28.77    -20.73     22.87
    8.3667     26.77     28.79    -20.85     22.87
    8.3769     26.29     28.81    -21.35     22.87
    8.3871     26.48     28.82    -21.17     22.87
    8.3972     26.73     28.84    -20.94     22.87
    8.4074     27.12     28.85    -20.56     22.88
    8.4176     27.52     28.87    -20.18     22.88
    8.4277     26.94     28.89    -20.78     22.88
    8.4379     27.27     28.90    -20.46     22.88
    8.4481     27.27     28.92    -20.48     22.88
    8.4582     27.23     28.94    -20.54     22.88
    8.4684     27.41     28.95    -20.37     22.88
    8.4786     27.27     28.97    -20.53     22.88
    8.4887     26.27     28.99    -21.55     22.88
    8.4989     26.95     29.00    -20.88     22.88
    8.5091     26.72     29.02    -21.13     22.88
    8.5192     26.78     29.04    -21.09     22.88
    8.5294     27.52     29.05    -20.36     22.88
    8.5395     27.05     29.07    -20.85     22.88
    8.5497     27.54     29.09    -20.38     22.89
    8.5599     27.46     29.11    -20.48     22.89
    8.5700     27.01     29.12    -20.94     22.89
    8.5802     27.19     29.14    -20.78     22.89
    8.5904     27.29     29.16    -20.70     22.89
    8.6005     28.48     29.17    -19.52     22.89
    8.6107     27.56     29.19    -20.46     22.89
    8.6209     27.77     29.21    -20.27     22.89
    8.6310     27.84     29.23    -20.22     22.89
    8.6412     27.16     29.24    -20.91     22.89
    8.6514     27.45     29.26    -20.64     22.89
    8.6615     28.44     29.28    -19.67     22.89
    8.6717     27.61     29.30    -20.52     22.89
    8.6818     27.15     29.32    -21.00     22.89
    8.6920     27.63     29.33    -20.53     22.89
    8.7022     27.43     29.35    -20.75     22.90
    8.7123     27.36     29.37    -20.84     22.90
    8.7225     27.88     29.39    -20.34     22.90
    8.7327     27.68     29.41    -20.56     22.90
    8.7428     26.88     29.42    -21.37     22.90
    8.7530     27.97     29.44    -20.30     22.90
    8.7632     28.06     29.46    -20.23     22.90
    8.7733     27.71     29.48    -20.60     22.90
    8.7835     27.94     29.50    -20.39     22.90
    8.7937     28.27     29.52    -20.08     22.90
    8.8038     28.44     29.54    -19.93     22.90
    8.8140     28.32     29.55    -20.06     22.90
    8.8242     28.32     29.57    -20.08     22.90
    8.8343     28.15     29.59    -20.27     22.90
    8.8445     28.48     29.61    -19.96     22.91
    8.8546     27.70     29.63    -20.76     22.91
    8.8648     28.01     29.65    -20.47     22.91
    8.8750     28.18     29.67    -20.32     22.91
    8.8851     27.87     29.69    -20.65     22.91
    8.8953     28.05     29.71    -20.49     22.91
    8.9055     27.59     29.73    -20.97     22.91
    8.9156     27.41     29.75    -21.17     22.91
    8.9258     28.57     29.77    -20.03     22.91
    8.9360     27.83     29.79    -20.79     22.91
    8.9461     27.35     29.80    -21.28     22.91
    8.9563     28.66     29.82    -19.99     22.91
    8.9665     28.74     29.84    -19.93     22.91
    8.9766     27.64     29.86    -21.05     22.91
    8.9868     28.55     29.88    -20.16     22.91
    8.9969     28.88     29.90    -19.85     22.92
    9.0071     28.09     29.92    -20.66     22.92
    9.0173     27.88     29.94    -20.89     22.92
    9.0274     28.45     29.96    -20.34     22.92
    9.0376     29.10     29.98    -19.71     22.92
    9.0478     28.93     30.00    -19.90     22.92
    9.0579     28.02     30.03    -20.84     22.92
    9.0681     28.98     30.05    -19.90     22.92
    9.0783     29.07     30.07    -19.83     22.92
    9.0884     28.55     30.09    -20.37     22.92
    9.0986     28.31     30.11    -20.63     22.92
    9.1088     29.34     30.13    -19.62     22.92
    9.1189     29.21     30.15    -19.77     22.92
    9.1291     28.52     30.17    -20.48     22.92
    9.1393     28.50     30.19    -20.52     22.93
    9.1494     29.23     30.21    -19.81     22.93
    9.1596     28.99     30.23    -20.07     22.93
    9.1697     29.20     30.25    -19.88     22.93
    9.1799     29.16     30.28    -19.95     22.93
    9.1901     28.88     30.30    -20.25     22.93
    9.2002     29.58     30.32    -19.57     22.93
    9.2104     29.33     30.34    -19.84     22.93
    9.2206     29.01     30.36    -20.18     22.93
    9.2307     29.05     30.38    -20.16     22.93
    9.2409     29.83     30.40    -19.40     22.93
    9.2511     29.32     30.43    -19.94     22.93
    9.2612     29.53     30.45    -19.75     22.93
    9.2714     29.91     30.47    -19.39     22.93
    9.2816     29.29     30.49    -20.03     22.93
    9.2917     29.83     30.51    -19.51     22.94
    9.3019     30.13     30.54    -19.24     22.94
    9.3120     29.43     30.56    -19.96     22.94
    9.3222     29.62     30.58    -19.79     22.94
    9.3324     30.05     30.60    -19.38     22.94
    9.3425     30.16     30.63    -19.30     22.94
    9.3527     30.01     30.65    -19.47     22.94
    9.3629     30.07     30.67    -19.43     22.94
    9.3730     29.93     30.69    -19.59     22.94
    9.3832     29.75     30.72    -19.80     22.94
    9.3934     30.20     30.74    -19.37     22.94
    9.4035     30.43     30.76    -19.16     22.94
    9.4137     29.61     30.79    -20.01     22.94
    9.4239     30.41     30.81    -19.23     22.94
    9.4340     30.18     30.83    -19.48     22.95
    9.4442     29.45     30.86    -20.24     22.95
    9.4544     30.49     30.88    -19.22     22.95
    9.4645     30.13     30.90    -19.60     22.95
    9.4747     30.24     30.93    -19.52     22.95
    9.4848     30.29     30.95    -19.49     22.95
    9.4950     29.84     30.97    -19.96     22.95
    9.5052     30.23     31.00    -19.60     22.95
    9.5153     30.40     31.02    -19.45     22.95
    9.5255     29.79     31.04    -20.08     22.95
    9.5357     29.84     31.07    -20.06     22.95
    9.5458     30.92     31.09    -19.00     22.95
    9.5560     29.39     31.12    -20.56     22.95
    9.5662     30.03     31.14    -19.94     22.95
    9.5763     30.18     31.17    -19.82     22.96
    9.5865     29.72     31.19    -20.30     22.96
    9.5967     30.15     31.21    -19.89     22.96
    9.6068     30.40     31.24    -19.67     22.96
    9.6170     30.15     31.26    -19.94     22.96
    9.6271     30.41     31.29    -19.71     22.96
    9.6373     30.59     31.31    -19.55     22.96
    9.6475     30.28     31.34    -19.89     22.96
    9.6576     29.77     31.36    -20.42     22.96
    9.6678     30.21     31.39    -20.01     22.96
    9.6780     29.68     31.41    -20.56     22.96
    9.6881     31.04     31.44    -19.23     22.96
    9.6983     30.18     31.46    -20.11     22.96
    9.7085     30.01     31.49    -20.31     22.96
    9.7186     31.18     31.52    -19.17     22.96
    9.7288     30.34     31.54    -20.03     22.97
    9.7390     30.60     31.57    -19.80     22.97
    9.7491     31.05     31.59    -19.37     22.97
    9.7593     30.62     31.62    -19.83     22.97
    9.7694     31.15     31.64    -19.32     22.97
    9.7796     30.35     31.67    -20.15     22.97
    9.7898     29.71     31.70    -20.82     22.97
    9.7999     31.13     31.72    -19.42     22.97
    9.8101     31.25     31.75    -19.33     22.97
    9.8203     30.22     31.78    -20.39     22.97
    9.8304     30.72     31.80    -19.91     22.97
    9.8406     31.00     31.83    -19.66     22.97
    9.8508     31.60     31.86    -19.09     22.97
    9.8609     30.77     31.88    -19.94     22.97
    9.8711     31.81     31.91    -18.93     22.98
    9.8813     30.20     31.94    -20.57     22.98
    9.8914     31.12     31.96    -19.67     22.98
    9.9016     30.50     31.99    -20.32     22.98
    9.9118     31.77     32.02    -19.08     22.98
    9.9219     31.30     32.04    -19.57     22.98
    9.9321     31.41     32.07    -19.49     22.98
    9.9422     31.85     32.10    -19.08     22.98
    9.9524     31.32     32.13    -19.64     22.98
    9.9626     30.77     32.15    -20.21     22.98
    9.9727     31.80     32.18    -19.21     22.98
    9.9829     31.60     32.21    -19.44     22.98
    9.9931     32.86     32.24    -18.21     22.98
   10.0032     31.57     32.27    -19.53     22.98
   10.0134     32.28     32.29    -18.84     22.98
   10.0236     31.33     32.32    -19.82     22.99
   10.0337     31.51     32.35    -19.67     22.99
   10.0439     30.95     32.38    -20.26     22.99
   10.0541     31.79     32.41    -19.45     22.99
   10.0642     32.43     32.44    -18.84     22.99
   10.0744     31.79     32.47    -19.51     22.99
   10.0845     31.48     32.49    -19.84     22.99
   10.0947     32.73     32.52    -18.62     22.99
   10.1049     31.63     32.55    -19.75     22.99
   10.1150     32.20     32.58    -19.21     22.99
   10.1252     31.86     32.61    -19.58     22.99
   10.1354     32.76     32.64    -18.71     22.99
   10.1455     31.68     32.67    -19.82     22.99
   10.1557     31.24     32.70    -20.29     22.99
   10.1659     32.55     32.73    -19.01     23.00
   10.1760     31.93     32.76    -19.66     23.00
   10.1862     32.30     32.79    -19.32     23.00
   10.1964     31.62     32.82    -20.03     23.00
   10.2065     31.18     32.85    -20.50     23.00
   10.2167     32.05     32.88    -19.66     23.00
   10.2269     32.01     32.91    -19.73     23.00
   10.2370     32.12     32.94    -19.65     23.00
   10.2472     31.62     32.97    -20.18     23.00
   10.2573     31.48     33.00    -20.35     23.00
   10.2675     32.63     33.03    -19.23     23.00
   10.2777     32.47     33.06    -19.42     23.00
   10.2878     32.43     33.09    -19.49     23.00
   10.2980     32.63     33.12    -19.32     23.00
   10.3082     32.71     33.15    -19.27     23.00
   10.3183     31.98     33.18    -20.03     23.01
   10.3285     31.91     33.21    -20.13     23.01
   10.3387     32.61     33.25    -19.47     23.01
   10.3488     31.83     33.28    -20.28     23.01
   10.3590     33.08     33.31    -19.06     23.01
   10.3692     32.24     33.34    -19.93     23.01
   10.3793     32.90     33.37    -19.30     23.01
   10.3895     33.84     33.40    -18.39     23.01
   10.3996     32.37     33.43    -19.89     23.01
   10.4098     32.76     33.47    -19.54     23.01
   10.4200     32.60     33.50    -19.73     23.01
   10.4301     33.22     33.53    -19.14     23.01
   10.4403     32.91     33.56    -19.48     23.01
   10.4505     32.70     33.60    -19.73     23.01
   10.4606     33.71     33.63    -18.75     23.02
   10.4708     32.88     33.66    -19.61     23.02
   10.4810     33.74     33.69    -18.78     23.02
   10.4911     33.17     33.73    -19.39     23.02
   10.5013     32.91     33.76    -19.68     23.02
   10.5115     33.63     33.79    -18.99     23.02
   10.5216     33.33     33.83    -19.33     23.02
   10.5318     33.12     33.86    -19.57     23.02
   10.5420     33.33     33.89    -19.39     23.02
   10.5521     32.80     33.93    -19.96     23.02
   10.5623     33.41     33.96    -19.38     23.02
   10.5724     33.12     33.99    -19.70     23.02
   10.5826     33.48     34.03    -19.38     23.02
   10.5928     33.02     34.06    -19.87     23.02
   10.6029     33.15     34.09    -19.77     23.02
   10.6131     32.40     34.13    -20.56     23.03
   10.6233     32.98     34.16    -20.01     23.03
   10.6334     32.82     34.20    -20.21     23.03
   10.6436     34.40     34.23    -18.66     23.03
   10.6538     33.14     34.27    -19.96     23.03
   10.6639     33.71     34.30    -19.42     23.03
   10.6741     33.27     34.33    -19.89     23.03
   10.6843     33.38     34.37    -19.82     23.03
   10.6944     33.43     34.40    -19.80     23.03
   10.7046     33.98     34.44    -19.29     23.03
   10.7147     35.42     34.47    -17.88     23.03
   10.7249     33.98     34.51    -19.36     23.03
   10.7351     33.95     34.54    -19.42     23.03
   10.7452     33.53     34.58    -19.88     23.03
   10.7554     34.29     34.62    -19.16     23.04
   10.7656     33.32     34.65    -20.16     23.04
   10.7757     33.70     34.69    -19.82     23.04
   10.7859     34.37     34.72    -19.18     23.04
   10.7961     34.39     34.76    -19.20     23.04
   10.8062     33.92     34.80    -19.71     23.04
   10.8164     33.61     34.83    -20.05     23.04
   10.8266     34.06     34.87    -19.64     23.04
   10.8367     33.93     34.90    -19.80     23.04
   10.8469     34.21     34.94    -19.56     23.04
   10.8571     34.43     34.98    -19.38     23.04
   10.8672     33.91     35.01    -19.93     23.04
   10.8774     33.63     35.05    -20.25     23.04
   10.8875     33.86     35.09    -20.06     23.04
   10.8977     34.20     35.13    -19.76     23.04
   10.9079     34.62     35.16    -19.37     23.05
   10.9180     33.45     35.20    -20.58     23.05
   10.9282     34.96     35.24    -19.11     23.05
   10.9384     34.74     35.28    -19.37     23.05
   10.9485     34.33     35.31    -19.81     23.05
   10.9587     35.05     35.35    -19.13     23.05
   10.9689     34.52     35.39    -19.70     23.05
   10.9790     34.60     35.43    -19.66     23.05
   10.9892     35.07     35.47    -19.23     23.05
   10.9994     35.05     35.50    -19.28     23.05
   11.0095     34.76     35.54    -19.61     23.05
   11.0197     35.09     35.58    -19.32     23.05
   11.0298     34.84     35.62    -19.61     23.05
   11.0400     35.34     35.66    -19.15     23.05
   11.0502     35.27     35.70    -19.26     23.06
   11.0603     34.95     35.74    -19.62     23.06
   11.0705     34.10     35.77    -20.50     23.06
   11.0807     35.19     35.81    -19.45     23.06
   11.0908     34.90     35.85    -19.78     23.06
   11.1010     35.24     35.89    -19.48     23.06
   11.1112     34.69     35.93    -20.07     23.06
   11.1213     34.88     35.97    -19.92     23.06
   11.1315     34.43     36.01    -20.41     23.06
   11.1417     35.35     36.05    -19.53     23.06
   11.1518     35.93     36.09    -18.99     23.06
   11.1620     35.22     36.13    -19.74     23.06
   11.1722     35.55     36.17    -19.45     23.06
   11.1823     35.70     36.21    -19.34     23.06
   11.1925     34.81     36.25    -20.27     23.06
   11.2026     35.16     36.29    -19.96     23.07
   11.2128     36.08     36.33    -19.08     23.07
   11.2230     35.30     36.38    -19.91     23.07
   11.2331     34.96     36.42    -20.29     23.07
   11.2433     35.41     36.46    -19.88     23.07
   11.2535     35.89     36.50    -19.44     23.07
   11.2636     36.16     36.54    -19.21     23.07
   11.2738     36.05     36.58    -19.36     23.07
   11.2840     36.34     36.62    -19.11     23.07
   11.2941     36.60     36.67    -18.90     23.07
   11.3043     36.41     36.71    -19.13     23.07
   11.3145     36.26     36.75    -19.32     23.07
   11.3246     35.77     36.79    -19.85     23.07
   11.3348     36.70     36.83    -18.96     23.07
   11.3449     35.15     36.88    -20.56     23.08
   11.3551     37.15     36.92    -18.60     23.08
   11.3653     36.20     36.96    -19.59     23.08
   11.3754     36.76     37.00    -19.07     23.08
   11.3856     36.66     37.05    -19.22     23.08
   11.3958     36.49     37.09    -19.43     23.08
   11.4059     36.69     37.13    -19.27     23.08
   11.4161     35.93     37.18    -20.08     23.08
   11.4263     35.98     37.22    -20.07     23.08
   11.4364     36.54     37.26    -19.55     23.08
   11.4466     36.63     37.31    -19.51     23.08
   11.4568     37.46     37.35    -18.72     23.08
   11.4669     36.34     37.39    -19.88     23.08
   11.4771     36.59     37.44    -19.68     23.08
   11.4873     36.78     37.48    -19.53     23.08
   11.4974     36.35     37.53    -20.01     23.09
   11.5076     36.72     37.57    -19.68     23.09
   11.5177     35.79     37.61    -20.65     23.09
   11.5279     36.46     37.66    -20.03     23.09
   11.5381     36.71     37.70    -19.82     23.09
   11.5482     37.38     37.75    -19.20     23.09
   11.5584     37.05     37.79    -19.57     23.09
   11.5686     38.05     37.84    -18.62     23.09
   11.5787     37.59     37.88    -19.12     23.09
   11.5889     37.41     37.93    -19.35     23.09
   11.5991     37.60     37.98    -19.21     23.09
   11.6092     37.71     38.02    -19.14     23.09
   11.6194     37.79     38.07    -19.11     23.09
   11.6296     37.25     38.11    -19.69     23.09
   11.6397     37.48     38.16    -19.51     23.10
   11.6499     37.72     38.21    -19.32     23.10
   11.6600     37.37     38.25    -19.71     23.10
   11.6702     37.63     38.30    -19.50     23.10
   11.6804     37.40     38.34    -19.77     23.10
   11.6905     37.70     38.39    -19.52     23.10
   11.7007     37.45     38.44    -19.82     23.10
   11.7109     38.15     38.49    -19.17     23.10
   11.7210     37.46     38.53    -19.90     23.10
   11.7312     38.00     38.58    -19.41     23.10
   11.7414     38.79     38.63    -18.67     23.10
   11.7515     38.22     38.67    -19.28     23.10
   11.7617     39.04     38.72    -18.51     23.10
   11.7719     37.62     38.77    -19.98     23.10
   11.7820     38.74     38.82    -18.91     23.11
   11.7922     38.95     38.87    -18.75     23.11
   11.8023     37.95     38.91    -19.79     23.11
   11.8125     38.83     38.96    -18.96     23.11
   11.8227     37.78     39.01    -20.06     23.11
   11.8328     38.40     39.06    -19.49     23.11
   11.8430     37.70     39.11    -20.24     23.11
   11.8532     38.69     39.16    -19.30     23.11
   11.8633     38.91     39.20    -19.12     23.11
   11.8735     38.57     39.25    -19.51     23.11
   11.8837     38.36     39.30    -19.77     23.11
   11.8938     38.63     39.35    -19.55     23.11
   11.9040     37.95     39.40    -20.28     23.11
   11.9142     39.05     39.45    -19.23     23.11
   11.9243     39.09     39.50    -19.24     23.11
   11.9345     37.54     39.55    -20.84     23.12
   11.9447     38.80     39.60    -19.63     23.12
   11.9548     39.73     39.65    -18.75     23.12
   11.9650     39.22     39.70    -19.31     23.12
   11.9751     39.24     39.75    -19.34     23.12
   11.9853     38.24     39.80    -20.39     23.12
   11.9955     39.41     39.85    -19.27     23.12
   12.0056     39.37     39.90    -19.36     23.12
   12.0158     40.33     39.96    -18.46     23.12
   12.0260     38.71     40.01    -20.13     23.12
   12.0361     39.84     40.06    -19.05     23.12
   12.0463     40.22     40.11    -18.72     23.12
   12.0565     39.96     40.16    -19.03     23.12
   12.0666     39.39     40.21    -19.65     23.12
   12.0768     38.99     40.26    -20.10     23.13
   12.0870     39.87     40.32    -19.28     23.13
   12.0971     39.85     40.37    -19.35     23.13
   12.1073     38.68     40.42    -20.57     23.13
   12.1174     40.76     40.47    -18.54     23.13
   12.1276     40.18     40.52    -19.17     23.13
   12.1378     41.38     40.58    -18.03     23.13
   12.1479     39.60     40.63    -19.86     23.13
   12.1581     39.67     40.68    -19.84     23.13
   12.1683     40.40     40.74    -19.17     23.13
   12.1784     40.65     40.79    -18.97     23.13
   12.1886     40.27     40.84    -19.40     23.13
   12.1988     39.79     40.90    -19.94     23.13
   12.2089     41.02     40.95    -18.76     23.13
   12.2191     40.36     41.00    -19.47     23.13
   12.2293     40.76     41.06    -19.13     23.14
   12.2394     40.87     41.11    -19.07     23.14
   12.2496     40.75     41.17    -19.25     23.14
   12.2598     40.32     41.22    -19.73     23.14
   12.2699     41.63     41.27    -18.47     23.14
   12.2801     40.90     41.33    -19.26     23.14
   12.2902     40.74     41.38    -19.47     23.14
   12.3004     40.87     41.44    -19.40     23.14
   12.3106     40.12     41.49    -20.20     23.14
   12.3207     40.95     41.55    -19.43     23.14
   12.3309     41.23     41.60    -19.20     23.14
   12.3411     40.15     41.66    -20.34     23.14
   12.3512     41.41     41.71    -19.13     23.14
   12.3614     41.12     41.77    -19.48     23.14
   12.3716     41.42     41.83    -19.24     23.15
   12.3817     41.29     41.88    -19.42     23.15
   12.3919     42.00     41.94    -18.77     23.15
   12.4021     40.96     42.00    -19.87     23.15
   12.4122     41.68     42.05    -19.20     23.15
   12.4224     41.85     42.11    -19.09     23.15
   12.4325     41.64     42.16    -19.35     23.15
   12.4427     41.19     42.22    -19.86     23.15
   12.4529     42.23     42.28    -18.88     23.15
   12.4630     41.92     42.34    -19.25     23.15
   12.4732     41.74     42.39    -19.48     23.15
   12.4834     42.54     42.45    -18.74     23.15
   12.4935     42.05     42.51    -19.29     23.15
   12.5037     41.94     42.57    -19.46     23.15
   12.5139     41.73     42.62    -19.72     23.15
   12.5240     42.63     42.68    -18.88     23.16
   12.5342     42.69     42.74    -18.88     23.16
   12.5444     42.79     42.80    -18.84     23.16
   12.5545     42.51     42.86    -19.18     23.16
   12.5647     42.29     42.92    -19.46     23.16
   12.5749     43.30     42.97    -18.50     23.16
   12.5850     42.27     43.03    -19.59     23.16
   12.5952     42.67     43.09    -19.25     23.16
   12.6053     42.09     43.15    -19.89     23.16
   12.6155     42.49     43.21    -19.55     23.16
   12.6257     43.35     43.27    -18.75     23.16
   12.6358     42.61     43.33    -19.55     23.16
   12.6460     42.73     43.39    -19.49     23.16
   12.6562     42.07     43.45    -20.21     23.16
   12.6663     42.35     43.51    -19.99     23.17
   12.6765     43.36     43.57    -19.04     23.17
   12.6867     43.52     43.63    -18.94     23.17
   12.6968     43.91     43.69    -18.61     23.17
   12.7070     44.70     43.75    -17.88     23.17
   12.7172     44.13     43.81    -18.51     23.17
   12.7273     44.57     43.87    -18.13     23.17
   12.7375     44.41     43.93    -18.35     23.17
   12.7476     43.90     44.00    -18.93     23.17
   12.7578     45.51     44.06    -17.38     23.17
   12.7680     44.15     44.12    -18.80     23.17
   12.7781     43.91     44.18    -19.10     23.17
   12.7883     44.98     44.24    -18.09     23.17
   12.7985     43.65     44.30    -19.48     23.17
   12.8086     43.59     44.37    -19.61     23.17
   12.8188     45.16     44.43    -18.10     23.18
   12.8290     43.96     44.49    -19.36     23.18
   12.8391     44.88     44.55    -18.50     23.18
   12.8493     45.16     44.62    -18.29     23.18
   12.8595     44.93     44.68    -18.58     23.18
   12.8696     43.95     44.74    -19.62     23.18
   12.8798     44.95     44.81    -18.69     23.18
   12.8900     43.86     44.87    -19.84     23.18
   12.9001     45.72     44.93    -18.04     23.18
   12.9103     44.68     45.00    -19.15     23.18
   12.9204     44.93     45.06    -18.96     23.18
   12.9306     44.75     45.12    -19.20     23.18
   12.9408     44.83     45.19    -19.19     23.18
   12.9509     45.00     45.25    -19.08     23.18
   12.9611     45.40     45.32    -18.75     23.19
   12.9713     45.60     45.38    -18.61     23.19
   12.9814     46.28     45.45    -18.00     23.19
   12.9916     46.03     45.51    -18.31     23.19
   13.0018     45.73     45.58    -18.68     23.19
   13.0119     46.65     45.64    -17.82     23.19
   13.0221     46.02     45.71    -18.52     23.19
   13.0323     46.54     45.77    -18.06     23.19
   13.0424     46.28     45.84    -18.39     23.19
   13.0526     46.17     45.91    -18.57     23.19
   13.0627     46.23     45.97    -18.57     23.19
   13.0729     46.36     46.04    -18.51     23.19
   13.0831     46.44     46.10    -18.49     23.19
   13.0932     45.93     46.17    -19.07     23.19
   13.1034     46.12     46.24    -18.95     23.19
   13.1136     46.84     46.30    -18.29     23.20
   13.1237     47.52     46.37    -17.68     23.20
   13.1339     47.32     46.44    -17.95     23.20
   13.1441     47.56     46.51    -17.78     23.20
   13.1542     46.40     46.57    -19.00     23.20
   13.1644     46.85     46.64    -18.62     23.20
   13.1746     46.55     46.71    -18.99     23.20
   13.1847     46.70     46.78    -18.91     23.20
   13.1949     48.55     46.85    -17.13     23.20
   13.2051     46.99     46.91    -18.75     23.20
   13.2152     46.87     46.98    -18.94     23.20
   13.2254     47.73     47.05    -18.15     23.20
   13.2355     47.27     47.12    -18.68     23.20
   13.2457     47.63     47.19    -18.39     23.20
   13.2559     47.97     47.26    -18.12     23.21
   13.2660     48.29     47.33    -17.87     23.21
   13.2762     48.79     47.40    -17.44     23.21
   13.2864     48.53     47.47    -17.77     23.21
   13.2965     48.34     47.54    -18.03     23.21
   13.3067     47.90     47.61    -18.54     23.21
   13.3169     48.07     47.68    -18.44     23.21
   13.3270     48.02     47.75    -18.56     23.21
   13.3372     48.74     47.82    -17.91     23.21
   13.3474     49.53     47.89    -17.19     23.21
   13.3575     49.09     47.96    -17.70     23.21
   13.3677     49.82     48.03    -17.04     23.21
   13.3778     49.84     48.10    -17.09     23.21
   13.3880     49.32     48.17    -17.68     23.21
   13.3982     49.46     48.24    -17.61     23.21
   13.4083     48.98     48.31    -18.16     23.22
   13.4185     49.07     48.39    -18.15     23.22
   13.4287     48.59     48.46    -18.70     23.22
   13.4388     49.07     48.53    -18.29     23.22
   13.4490     49.01     48.60    -18.42     23.22
   13.4592     50.52     48.68    -16.99     23.22
   13.4693     49.11     48.75    -18.47     23.22
   13.4795     49.45     48.82    -18.20     23.22
   13.4897     49.71     48.89    -18.01     23.22
   13.4998     49.61     48.97    -18.19     23.22
   13.5100     49.70     49.04    -18.17     23.22
   13.5201     50.43     49.11    -17.51     23.22
   13.5303     49.88     49.19    -18.14     23.22
   13.5405     50.51     49.26    -17.58     23.22
   13.5506     51.13     49.34    -17.04     23.23
   13.5608     49.35     49.41    -18.89     23.23
   13.5710     49.71     49.49    -18.61     23.23
   13.5811     52.28     49.56    -16.11     23.23
   13.5913     51.99     49.63    -16.47     23.23
   13.6015     51.98     49.71    -16.56     23.23
   13.6116     51.48     49.79    -17.14     23.23
   13.6218     51.85     49.86    -16.84     23.23
   13.6320     51.78     49.94    -16.99     23.23
   13.6421     51.73     50.01    -17.11     23.23
   13.6523     51.35     50.09    -17.57     23.23
   13.6625     52.51     50.17    -16.49     23.23
   13.6726     51.94     50.24    -17.13     23.23
   13.6828     52.79     50.32    -16.36     23.23
   13.6929     52.14     50.39    -17.08     23.24
   13.7031     52.95     50.47    -16.35     23.24
   13.7133     52.07     50.55    -17.31     23.24
   13.7234     51.93     50.63    -17.53     23.24
   13.7336     52.97     50.70    -16.56     23.24
   13.7438     52.24     50.78    -17.37     23.24
   13.7539     52.96     50.86    -16.73     23.24
   13.7641     53.16     50.94    -16.61     23.24
   13.7743     52.65     51.02    -17.20     23.24
   13.7844     53.75     51.10    -16.18     23.24
   13.7946     53.61     51.17    -16.39     23.24
   13.8048     54.80     51.25    -15.28     23.24
   13.8149     52.71     51.33    -17.45     23.24
   13.8251     53.91     51.41    -16.33     23.24
   13.8352     52.60     51.49    -17.72     23.24
   13.8454     53.97     51.57    -16.43     23.25
   13.8556     53.90     51.65    -16.58     23.25
   13.8657     53.47     51.73    -17.09     23.25
   13.8759     53.26     51.81    -17.38     23.25
   13.8861     54.24     51.90    -16.49     23.25
   13.8962     53.11     51.98    -17.70     23.25
   13.9064     53.77     52.06    -17.12     23.25
   13.9166     55.87     52.14    -15.10     23.25
   13.9267     54.60     52.22    -16.45     23.25
   13.9369     53.62     52.30    -17.51     23.25
   13.9471     54.68     52.39    -16.54     23.25
   13.9572     55.19     52.47    -16.11     23.25
   13.9674     54.29     52.55    -17.09     23.25
   13.9776     54.96     52.64    -16.51     23.25
   13.9877     55.80     52.72    -15.75     23.26
   13.9979     55.07     52.80    -16.56     23.26
   14.0080     55.46     52.89    -16.26     23.26
   14.0182     55.52     52.97    -16.28     23.26
   14.0284     56.07     53.06    -15.82     23.26
   14.0385     56.18     53.14    -15.79     23.26
   14.0487     55.49     53.22    -16.56     23.26
   14.0589     55.48     53.31    -16.66     23.26
   14.0690     56.26     53.40    -15.97     23.26
   14.0792     56.69     53.48    -15.62     23.26
   14.0894     55.65     53.57    -16.75     23.26
   14.0995     55.71     53.65    -16.77     23.26
   14.1097     56.85     53.74    -15.72     23.26
   14.1199     56.63     53.83    -16.03     23.26
   14.1300     56.52     53.92    -16.23     23.26
   14.1402     56.71     54.00    -16.12     23.27
   14.1503     56.85     54.09    -16.07     23.27
   14.1605     56.75     54.18    -16.26     23.27
   14.1707     57.21     54.27    -15.89     23.27
   14.1808     57.48     54.36    -15.71     23.27
   14.1910     58.71     54.45    -14.57     23.27
   14.2012     57.01     54.54    -16.36     23.27
   14.2113     58.28     54.63    -15.18     23.27
   14.2215     57.66     54.72    -15.89     23.27
   14.2317     58.49     54.81    -15.15     23.27
   14.2418     57.84     54.90    -15.89     23.27
   14.2520     58.51     54.99    -15.31     23.27
   14.2622     59.24     55.08    -14.67     23.27
   14.2723     58.63     55.17    -15.37     23.27
   14.2825     58.40     55.27    -15.70     23.28
   14.2927     58.67     55.36    -15.52     23.28
   14.3028     57.84     55.45    -16.44     23.28
   14.3130     59.34     55.55    -15.04     23.28
   14.3231     58.73     55.64    -15.74     23.28
   14.3333     59.55     55.74    -15.02     23.28
   14.3435     60.18     55.83    -14.48     23.28
   14.3536     59.19     55.93    -15.57     23.28
   14.3638     59.44     56.02    -15.41     23.28
   14.3740     59.05     56.12    -15.90     23.28
   14.3841     60.31     56.21    -14.73     23.28
   14.3943     61.46     56.31    -13.68     23.28
   14.4045     61.47     56.41    -13.77     23.28
   14.4146     60.12     56.51    -15.22     23.28
   14.4248     60.61     56.61    -14.83     23.28
   14.4350     62.13     56.71    -13.41     23.29
   14.4451     60.03     56.80    -15.60     23.29
   14.4553     60.08     56.90    -15.65     23.29
   14.4654     60.38     57.00    -15.45     23.29
   14.4756     61.45     57.11    -14.49     23.29
   14.4858     60.71     57.21    -15.33     23.29
   14.4959     61.69     57.31    -14.45     23.29
   14.5061     61.70     57.41    -14.54     23.29
   14.5163     61.22     57.51    -15.12     23.29
   14.5264     61.41     57.62    -15.04     23.29
   14.5366     61.50     57.72    -15.05     23.29
   14.5468     61.40     57.83    -15.26     23.29
   14.5569     62.60     57.93    -14.16     23.29
   14.5671     61.99     58.04    -14.88     23.29
   14.5773     62.67     58.14    -14.30     23.30
   14.5874     62.58     58.25    -14.50     23.30
   14.5976     62.22     58.36    -14.97     23.30
   14.6078     62.05     58.47    -15.25     23.30
   14.6179     63.38     58.57    -14.02     23.30
   14.6281     62.60     58.68    -14.91     23.30
   14.6382     63.56     58.79    -14.06     23.30
   14.6484     63.27     58.90    -14.46     23.30
   14.6586     63.51     59.01    -14.33     23.30
   14.6687     63.81     59.13    -14.15     23.30
   14.6789     65.08     59.24    -12.99     23.30
   14.6891     64.06     59.35    -14.12     23.30
   14.6992     63.57     59.47    -14.73     23.30
   14.7094     63.98     59.58    -14.43     23.30
   14.7196     64.12     59.70    -14.41     23.30
   14.7297     64.50     59.81    -14.14     23.31
   14.7399     65.61     59.93    -13.15     23.31
   14.7501     64.80     60.05    -14.08     23.31
   14.7602     65.07     60.16    -13.92     23.31
   14.7704     66.21     60.28    -12.90     23.31
   14.7805     64.85     60.40    -14.38     23.31
   14.7907     65.05     60.52    -14.30     23.31
   14.8009     65.28     60.64    -14.19     23.31
   14.8110     65.84     60.77    -13.76     23.31
   14.8212     66.37     60.89    -13.35     23.31
   14.8314     65.87     61.01    -13.97     23.31
   14.8415     66.29     61.14    -13.68     23.31
   14.8517     65.75     61.26    -14.34     23.31
   14.8619     66.44     61.39    -13.78     23.31
   14.8720     67.05     61.52    -13.30     23.32
   14.8822     66.69     61.64    -13.78     23.32
   14.8924     67.38     61.77    -13.22     23.32
   14.9025     66.59     61.90    -14.14     23.32
   14.9127     68.16     62.03    -12.70     23.32
   14.9229     68.44     62.16    -12.55     23.32
   14.9330     68.09     62.30    -13.04     23.32
   14.9432     67.22     62.43    -14.04     23.32
   14.9533     67.23     62.56    -14.16     23.32
   14.9635     67.41     62.70    -14.12     23.32
   14.9737     69.34     62.84    -12.33     23.32
   14.9838     69.27     62.97    -12.53     23.32
   14.9940     68.68     63.11    -13.26     23.32
   15.0042     68.71     63.25    -13.37     23.32
   15.0143     68.56     63.39    -13.66     23.32
   15.0245     68.98     63.53    -13.38     23.33
   15.0347     68.79     63.67    -13.71     23.33
   15.0448     68.46     63.82    -14.19     23.33
   15.0550     68.15     63.96    -14.64     23.33
   15.0652     70.01     64.11    -12.93     23.33
   15.0753     69.15     64.25    -13.93     23.33
   15.0855     71.29     64.40    -11.94     23.33
   15.0956     71.27     64.55    -12.11     23.33
   15.1058     71.45     64.70    -12.08     23.33
   15.1160     70.83     64.85    -12.85     23.33
   15.1261     69.77     65.00    -14.06     23.33
   15.1363     70.32     65.16    -13.67     23.33
   15.1465     70.55     65.31    -13.59     23.33
   15.1566     71.87     65.47    -12.43     23.33
   15.1668     70.85     65.62    -13.60     23.34
   15.1770     71.65     65.78    -12.96     23.34
   15.1871     71.35     65.94    -13.42     23.34
   15.1973     71.51     66.10    -13.42     23.34
   15.2075     70.95     66.26    -14.14     23.34
   15.2176     71.11     66.43    -14.15     23.34
   15.2278     71.59     66.59    -13.83     23.34
   15.2380     73.01     66.76    -12.58     23.34
   15.2481     72.79     66.92    -12.96     23.34
   15.2583     73.18     67.09    -12.74     23.34
   15.2684     72.20     67.26    -13.89     23.34
   15.2786     72.45     67.43    -13.81     23.34
   15.2888     74.74     67.60    -11.69     23.34
   15.2989     72.93     67.77    -13.67     23.34
   15.3091     73.15     67.95    -13.63     23.34
   15.3193     73.55     68.12    -13.40     23.35
   15.3294     75.00     68.30    -12.13     23.35
   15.3396     73.89     68.48    -13.42     23.35
   15.3498     73.99     68.66    -13.50     23.35
   15.3599     75.90     68.84    -11.77     23.35
   15.3701     74.20     69.02    -13.65     23.35
   15.3803     75.96     69.20    -12.07     23.35
   15.3904     75.79     69.39    -12.43     23.35
   15.4006     75.48     69.58    -12.93     23.35
   15.4107     75.15     69.76    -13.44     23.35
   15.4209     73.52     69.95    -15.26     23.35
   15.4311     74.39     70.14    -14.58     23.35
   15.4412     75.80     70.33    -13.36     23.35
   15.4514     75.38     70.53    -13.98     23.35
   15.4616     76.68     70.72    -12.87     23.36
   15.4717     76.91     70.92    -12.84     23.36
   15.4819     77.20     71.11    -12.74     23.36
   15.4921     76.00     71.31    -14.14     23.36
   15.5022     77.77     71.51    -12.57     23.36
   15.5124     75.68     71.71    -14.86     23.36
   15.5226     78.09     71.92    -12.66     23.36
   15.5327     77.57     72.12    -13.38     23.36
   15.5429     76.18     72.33    -14.98     23.36
   15.5530     76.77     72.53    -14.59     23.36
   15.5632     77.53     72.74    -14.04     23.36
   15.5734     78.04     72.95    -13.74     23.36
   15.5835     79.90     73.16    -12.09     23.36
   15.5937     77.95     73.38    -14.26     23.36
   15.6039     78.97     73.59    -13.45     23.37
   15.6140     80.43     73.81    -12.21     23.37
   15.6242     79.04     74.02    -13.81     23.37
   15.6344     79.01     74.24    -14.06     23.37
   15.6445     78.82     74.46    -14.47     23.37
   15.6547     79.11     74.68    -14.40     23.37
   15.6649     80.41     74.91    -13.33     23.37
   15.6750     80.22     75.13    -13.74     23.37
   15.6852     80.55     75.35    -13.63     23.37
   15.6954     78.60     75.58    -15.81     23.37
   15.7055     82.51     75.81    -12.13     23.37
   15.7157     81.52     76.04    -13.35     23.37
   15.7258     80.56     76.27    -14.54     23.37
   15.7360     81.45     76.50    -13.88     23.37
   15.7462     80.49     76.73    -15.07     23.37
   15.7563     81.84     76.97    -13.96     23.38
   15.7665     81.43     77.20    -14.60     23.38
   15.7767     81.91     77.44    -14.36     23.38
   15.7868     82.46     77.68    -14.05     23.38
   15.7970     83.78     77.92    -12.97     23.38
   15.8072     83.13     78.16    -13.86     23.38
   15.8173     82.32     78.40    -14.91     23.38
   15.8275     82.93     78.64    -14.54     23.38
   15.8377     82.77     78.89    -14.95     23.38
   15.8478     82.47     79.13    -15.49     23.38
   15.8580     82.21     79.38    -16.00     23.38
   15.8681     83.02     79.63    -15.44     23.38
   15.8783     82.96     79.88    -15.75     23.38
   15.8885     84.13     80.13    -14.83     23.38
   15.8986     85.29     80.38    -13.92     23.39
   15.9088     84.29     80.63    -15.17     23.39
   15.9190     85.18     80.89    -14.54     23.39
   15.9291     84.67     81.14    -15.30     23.39
   15.9393     84.57     81.40    -15.66     23.39
   15.9495     85.37     81.65    -15.11     23.39
   15.9596     84.55     81.91    -16.19     23.39
   15.9698     84.89     82.17    -16.11     23.39
   15.9800     85.30     82.43    -15.96     23.39
   15.9901     85.84     82.69    -15.68     23.39
   16.0003     86.07     82.95    -15.71     23.39
   16.0105     86.35     83.22    -15.70     23.39
   16.0206     86.09     83.48    -16.22     23.39
   16.0308     87.95     83.74    -14.62     23.39
   16.0409     86.33     84.01    -16.51     23.39
   16.0511     87.40     84.27    -15.70     23.40
   16.0613     87.01     84.54    -16.36     23.40
   16.0714     86.58     84.80    -17.05     23.40
   16.0816     88.32     85.07    -15.58     23.40
   16.0918     87.73     85.34    -16.44     23.40
   16.1019     88.43     85.61    -16.01     23.40
   16.1121     88.70     85.88    -16.01     23.40
   16.1223     89.36     86.15    -15.62     23.40
   16.1324     89.35     86.42    -15.90     23.40
   16.1426     89.34     86.69    -16.18     23.40
   16.1528     89.20     86.96    -16.59     23.40
   16.1629     90.56     87.23    -15.50     23.40
   16.1731     89.85     87.51    -16.49     23.40
   16.1832     90.49     87.78    -16.12     23.40
   16.1934     90.71     88.05    -16.17     23.41
   16.2036     90.28     88.33    -16.88     23.41
   16.2137     90.75     88.60    -16.68     23.41
   16.2239     90.61     88.87    -17.09     23.41
   16.2341     91.32     89.15    -16.66     23.41
   16.2442     89.84     89.42    -18.41     23.41
   16.2544     91.26     89.70    -17.27     23.41
   16.2646     92.41     89.97    -16.39     23.41
   16.2747     93.18     90.24    -15.89     23.41
   16.2849     93.06     90.52    -16.29     23.41
   16.2951     92.25     90.79    -17.37     23.41
   16.3052     92.20     91.06    -17.69     23.41
   16.3154     93.17     91.34    -17.00     23.41
   16.3256     92.36     91.61    -18.08     23.41
   16.3357     93.15     91.88    -17.56     23.41
   16.3459     92.78     92.16    -18.21     23.42
   16.3560     93.52     92.43    -17.74     23.42
   16.3662     94.80     92.70    -16.73     23.42
   16.3764     93.15     92.97    -18.65     23.42
   16.3865     94.10     93.24    -17.97     23.42
   16.3967     94.32     93.51    -18.02     23.42
   16.4069     94.69     93.78    -17.92     23.42
   16.4170     96.79     94.05    -16.09     23.42
   16.4272     96.58     94.32    -16.57     23.42
   16.4374     95.28     94.58    -18.13     23.42
   16.4475     96.36     94.85    -17.32     23.42
   16.4577     96.27     95.12    -17.68     23.42
   16.4679     96.46     95.38    -17.75     23.42
   16.4780     96.46     95.64    -18.01     23.42
   16.4882     97.04     95.91    -17.70     23.43
   16.4983     95.54     96.16    -19.45     23.43
   16.5085     97.73     96.43    -17.53     23.43
   16.5187     96.09     96.68    -19.42     23.43
   16.5288     97.37     96.94    -18.40     23.43
   16.5390     99.49     97.20    -16.54     23.43
   16.5492     97.49     97.45    -18.79     23.43
   16.5593     99.42     97.70    -17.11     23.43
   16.5695     97.57     97.96    -19.22     23.43
   16.5797     99.38     98.21    -17.66     23.43
   16.5898     99.57     98.45    -17.71     23.43
   16.6000    100.30     98.70    -17.23     23.43
   16.6102     99.26     98.95    -18.52     23.43
   16.6203     99.38     99.19    -18.64     23.43
   16.6305    100.86     99.43    -17.40     23.43
   16.6407    100.32     99.67    -18.18     23.44
   16.6508    101.37     99.91    -17.37     23.44
   16.6610    100.02    100.14    -18.95     23.44
   16.6711     99.28    100.38    -19.93     23.44
   16.6813    100.41    100.61    -19.03     23.44
   16.6915    101.93    100.84    -17.74     23.44
   16.7016    102.02    101.06    -17.87     23.44
   16.7118    102.90    101.29    -17.22     23.44
   16.7220    101.93    101.51    -18.41     23.44
   16.7321    103.24    101.73    -17.32     23.44
   16.7423    102.63    101.95    -18.15     23.44
   16.7525    102.67    102.17    -18.33     23.44
   16.7626    103.29    102.38    -17.92     23.44
   16.7728    103.81    102.59    -17.61     23.44
   16.7830    103.49    102.80    -18.14     23.45
   16.7931    102.41    103.01    -19.43     23.45
   16.8033    103.37    103.21    -18.67     23.45
   16.8134    103.43    103.41    -18.81     23.45
   16.8236    105.06    103.61    -17.38     23.45
   16.8338    103.94    103.81    -18.70     23.45
   16.8439    104.82    104.00    -18.01     23.45
   16.8541    103.74    104.19    -19.28     23.45
   16.8643    104.32    104.38    -18.89     23.45
   16.8744    105.14    104.57    -18.26     23.45
   16.8846    105.95    104.75    -17.63     23.45
   16.8948    105.13    104.94    -18.64     23.45
   16.9049    106.07    105.12    -17.88     23.45
   16.9151    105.68    105.29    -18.44     23.45
   16.9253    105.88    105.47    -18.42     23.45
   16.9354    107.87    105.64    -16.60     23.46
   16.9456    105.87    105.81    -18.77     23.46
   16.9558    106.67    105.98    -18.14     23.46
   16.9659    106.38    106.15    -18.60     23.46
   16.9761    106.70    106.31    -18.44     23.46
   16.9862    106.77    106.48    -18.54     23.46
   16.9964    107.83    106.64    -17.64     23.46
   17.0066    107.84    106.80    -17.79     23.46
   17.0167    106.42    106.96    -19.37     23.46
   17.0269    107.32    107.11    -18.62     23.46
   17.0371    108.35    107.27    -17.75     23.46
   17.0472    109.51    107.42    -16.74     23.46
   17.0574    109.28    107.57    -17.12     23.46
   17.0676    109.71    107.73    -16.85     23.46
   17.0777    109.71    107.88    -17.00     23.47
   17.0879    108.67    108.03    -18.19     23.47
   17.0981    109.29    108.18    -17.72     23.47
   17.1082    108.68    108.32    -18.47     23.47
   17.1184    111.02    108.47    -16.28     23.47
   17.1285    110.77    108.62    -16.68     23.47
   17.1387    109.60    108.77    -18.00     23.47
   17.1489    111.37    108.92    -16.38     23.47
   17.1590    110.96    109.07    -16.94     23.47
   17.1692    110.70    109.22    -17.35     23.47
   17.1794    112.26    109.38    -15.95     23.47
   17.1895    110.63    109.53    -17.73     23.47
   17.1997    111.06    109.69    -17.46     23.47
   17.2099    113.98    109.84    -14.69     23.47
   17.2200    112.60    110.00    -16.23     23.47
   17.2302    111.55    110.17    -17.45     23.48
   17.2404    115.68    110.33    -13.48     23.48
   17.2505    111.82    110.50    -17.51     23.48
   17.2607    112.38    110.67    -17.12     23.48
   17.2709    113.10    110.85    -16.58     23.48
   17.2810    114.24    111.02    -15.61     23.48
   17.2912    114.90    111.21    -15.14     23.48
   17.3013    114.79    111.40    -15.44     23.48
   17.3115    113.80    111.59    -16.62     23.48
   17.3217    117.06    111.79    -13.56     23.48
   17.3318    116.58    111.99    -14.24     23.48
   17.3420    115.29    112.21    -15.75     23.48
   17.3522    115.81    112.43    -15.45     23.48
   17.3623    116.77    112.65    -14.71     23.48
   17.3725    116.60    112.88    -15.11     23.49
   17.3827    117.13    113.12    -14.82     23.49
   17.3928    116.68    113.37    -15.52     23.49
   17.4030    117.09    113.63    -15.37     23.49
   17.4132    116.79    113.90    -15.94     23.49
   17.4233    118.90    114.18    -14.11     23.49
   17.4335    118.84    114.47    -14.46     23.49
   17.4436    118.38    114.76    -15.21     23.49
   17.4538    120.19    115.07    -13.71     23.49
   17.4640    119.13    115.40    -15.10     23.49
   17.4741    120.15    115.73    -14.41     23.49
   17.4843    119.96    116.08    -14.95     23.49
   17.4945    119.45    116.44    -15.82     23.49
   17.5046    121.24    116.81    -14.40     23.49
   17.5148    121.31    117.20    -14.72     23.50
   17.5250    119.99    117.60    -16.44     23.50
   17.5351    121.52    118.02    -15.33     23.50
   17.5453    121.76    118.45    -15.52     23.50
   17.5555    121.34    118.90    -16.39     23.50
   17.5656    121.23    119.37    -16.97     23.50
   17.5758    122.55    119.85    -16.13     23.50
   17.5859    121.60    120.35    -17.58     23.50
   17.5961    122.84    120.87    -16.86     23.50
   17.6063    126.21    121.41    -14.03     23.50
   17.6164    125.10    121.97    -15.70     23.50
   17.6266    123.10    122.55    -18.28     23.50
   17.6368    126.74    123.15    -15.24     23.50
   17.6469    126.84    123.76    -15.75     23.50
   17.6571    126.17    124.40    -17.06     23.50
   17.6673    128.29    125.07    -15.61     23.51
   17.6774    125.98    125.74    -18.59     23.51
   17.6876    127.40    126.45    -17.88     23.51
   17.6978    129.16    127.18    -16.85     23.51
   17.7079    128.25    127.93    -18.51     23.51
   17.7181    128.52    128.70    -19.01     23.51
   17.7283    130.63    129.50    -17.70     23.51
   17.7384    128.37    130.32    -20.78     23.51
   17.7486    132.07    131.17    -17.93     23.51
   17.7587    133.34    132.03    -17.52     23.51
   17.7689    134.14    132.93    -17.62     23.51
   17.7791    134.43    133.85    -18.25     23.51
   17.7892    132.34    134.79    -21.28     23.51
   17.7994    134.21    135.77    -20.39     23.51
   17.8096    134.41    136.77    -21.19     23.52
   17.8197    135.99    137.78    -20.62     23.52
   17.8299    134.94    138.83    -22.72     23.52
   17.8401    136.71    139.91    -22.03     23.52
   17.8502    136.32    141.00    -23.51     23.52
   17.8604    137.76    142.12    -23.19     23.52
   17.8706    138.90    143.27    -23.20     23.52
   17.8807    141.13    144.44    -22.14     23.52
   17.8909    140.66    145.64    -23.81     23.52
   17.9010    140.93    146.86    -24.76     23.52
   17.9112    142.88    148.11    -24.06     23.52
   17.9214    142.72    149.38    -25.49     23.52
   17.9315    143.98    150.67    -25.52     23.52
   17.9417    144.87    151.99    -25.95     23.52
   17.9519    145.99    153.34    -26.18     23.52
   17.9620    144.91    154.70    -28.62     23.53
   17.9722    149.80    156.09    -25.12     23.53
   17.9824    147.17    157.50    -29.16     23.53
   17.9925    151.38    158.92    -26.37     23.53
   18.0027    151.43    160.37    -27.77     23.53
   18.0129    152.48    161.84    -28.19     23.53
   18.0230    151.06    163.32    -31.09     23.53
   18.0332    155.95    164.83    -27.71     23.53
   18.0434    155.45    166.35    -29.73     23.53
   18.0535    157.05    167.88    -29.66     23.53
   18.0637    158.59    169.43    -29.67     23.53
   18.0738    157.73    170.98    -32.08     23.53
   18.0840    160.79    172.56    -30.60     23.53
   18.0942    164.19    174.15    -28.79     23.53
   18.1043    163.96    175.74    -30.61     23.54
   18.1145    163.23    177.35    -32.95     23.54
   18.1247    167.01    178.97    -30.79     23.54
   18.1348    167.91    180.57    -31.49     23.54
   18.1450    168.91    182.20    -32.12     23.54
   18.1552    171.77    183.83    -30.89     23.54
   18.1653    172.49    185.44    -31.78     23.54
   18.1755    173.25    187.07    -32.65     23.54
   18.1857    180.05    188.69    -27.47     23.54
   18.1958    178.22    190.30    -30.91     23.54
   18.2060    179.12    191.91    -31.62     23.54
   18.2161    182.98    193.50    -29.35     23.54
   18.2263    186.89    195.10    -27.04     23.54
   18.2365    185.61    196.68    -29.90     23.54
   18.2466    188.03    198.23    -29.03     23.54
   18.2568    190.69    199.78    -27.92     23.55
   18.2670    189.52    201.31    -30.62     23.55
   18.2771    194.10    202.80    -27.53     23.55
   18.2873    193.79    204.29    -29.33     23.55
   18.2975    195.12    205.75    -29.46     23.55
   18.3076    200.95    207.16    -25.04     23.55
   18.3178    202.13    208.56    -25.26     23.55
   18.3280    201.98    209.92    -26.77     23.55
   18.3381    206.44    211.24    -23.63     23.55
   18.3483    207.83    212.52    -23.52     23.55
   18.3585    207.04    213.77    -25.56     23.55
   18.3686    210.38    214.96    -23.41     23.55
   18.3788    210.76    216.11    -24.18     23.55
   18.3889    212.23    217.21    -23.81     23.55
   18.3991    214.71    218.26    -22.38     23.56
   18.4093    213.37    219.26    -24.72     23.56
   18.4194    214.15    220.19    -24.87     23.56
   18.4296    218.23    221.08    -21.68     23.56
   18.4398    219.95    221.90    -20.78     23.56
   18.4499    220.57    222.65    -20.91     23.56
   18.4601    222.66    223.35    -19.52     23.56
   18.4703    223.59    223.97    -19.21     23.56
   18.4804    223.41    224.53    -19.95     23.56
   18.4906    225.43    225.02    -18.42     23.56
   18.5008    225.62    225.44    -18.65     23.56
   18.5109    224.45    225.78    -20.16     23.56
   18.5211    225.51    226.05    -19.37     23.56
   18.5312    227.01    226.25    -18.07     23.56
   18.5414    226.02    226.37    -19.18     23.56
   18.5516    227.02    226.42    -18.23     23.57
   18.5617    227.05    226.40    -18.18     23.57
   18.5719    224.52    226.30    -20.61     23.57
   18.5821    225.65    226.12    -19.30     23.57
   18.5922    223.87    225.87    -20.83     23.57
   18.6024    221.74    225.55    -22.64     23.57
   18.6126    225.24    225.16    -18.75     23.57
   18.6227    222.11    224.70    -21.42     23.57
   18.6329    221.29    224.16    -21.70     23.57
   18.6431    220.51    223.55    -21.87     23.57
   18.6532    218.39    222.89    -23.33     23.57
   18.6634    216.05    222.15    -24.93     23.57
   18.6736    213.73    221.35    -26.45     23.57
   18.6837    215.26    220.50    -24.07     23.57
   18.6939    212.55    219.58    -25.86     23.58
   18.7040    212.57    218.62    -24.88     23.58
   18.7142    212.33    217.59    -24.09     23.58
   18.7244    206.05    216.51    -29.29     23.58
   18.7345    206.40    215.39    -27.82     23.58
   18.7447    206.95    214.21    -26.09     23.58
   18.7549    200.99    212.99    -30.83     23.58
   18.7650    201.55    211.74    -29.02     23.58
   18.7752    199.40    210.44    -29.87     23.58
   18.7854    196.44    209.10    -31.49     23.58
   18.7955    195.62    207.74    -30.95     23.58
   18.8057    193.85    206.34    -31.32     23.58
   18.8159    192.18    204.91    -31.56     23.58
   18.8260    188.27    203.46    -34.02     23.58
   18.8362    189.60    201.98    -31.21     23.58
   18.8463    186.95    200.50    -32.38     23.59
   18.8565    185.88    198.98    -31.93     23.59
   18.8667    184.30    197.44    -31.97     23.59
   18.8768    181.48    195.91    -33.26     23.59
   18.8870    180.10    194.35    -33.08     23.59
   18.8972    178.60    192.77    -33.00     23.59
   18.9073    176.64    191.21    -33.40     23.59
   18.9175    174.20    189.63    -34.26     23.59
   18.9277    175.04    188.04    -31.83     23.59
   18.9378    172.40    186.47    -32.90     23.59
   18.9480    172.70    184.88    -31.01     23.59
   18.9582    171.41    183.30    -30.72     23.59
   18.9683    167.12    181.73    -33.44     23.59
   18.9785    168.93    180.15    -30.05     23.59
   18.9887    166.86    178.59    -30.56     23.60
   18.9988    165.85    177.04    -30.02     23.60
   19.0090    165.13    175.49    -29.19     23.60
   19.0191    163.70    173.97    -29.10     23.60
   19.0293    161.49    172.45    -29.79     23.60
   19.0395    160.73    170.94    -29.04     23.60
   19.0496    159.47    169.46    -28.82     23.60
   19.0598    158.01    167.99    -28.81     23.60
   19.0700    157.43    166.53    -27.93     23.60
   19.0801    157.82    165.10    -26.11     23.60
   19.0903    154.32    163.68    -28.19     23.60
   19.1005    154.01    162.28    -27.10     23.60
   19.1106    152.55    160.92    -27.20     23.60
   19.1208    151.35    159.57    -27.05     23.60
   19.1310    151.79    158.24    -25.28     23.60
   19.1411    150.23    156.95    -25.55     23.61
   19.1513    149.83    155.67    -24.67     23.61
   19.1614    149.51    154.42    -23.74     23.61
   19.1716    148.10    153.19    -23.92     23.61
   19.1818    146.74    151.99    -24.08     23.61
   19.1919    147.04    150.83    -22.62     23.61
   19.2021    147.28    149.68    -21.23     23.61
   19.2123    145.87    148.56    -21.52     23.61
   19.2224    145.39    147.48    -20.92     23.61
   19.2326    142.68    146.42    -22.57     23.61
   19.2428    143.09    145.38    -21.12     23.61
   19.2529    142.29    144.39    -20.93     23.61
   19.2631    142.95    143.41    -19.29     23.61
   19.2733    142.83    142.46    -18.46     23.61
   19.2834    140.29    141.56    -20.10     23.62
   19.2936    141.40    140.67    -18.10     23.62
   19.3038    139.73    139.81    -18.91     23.62
   19.3139    140.43    138.99    -17.39     23.62
   19.3241    139.20    138.19    -17.82     23.62
   19.3342    139.51    137.42    -16.74     23.62
   19.3444    139.22    136.68    -16.29     23.62
   19.3546    138.20    135.96    -16.59     23.62
   19.3647    138.46    135.29    -15.66     23.62
   19.3749    138.23    134.63    -15.23     23.62
   19.3851    137.43    134.00    -15.40     23.62
   19.3952    136.54    133.40    -15.69     23.62
   19.4054    137.38    132.83    -14.28     23.62
   19.4156    135.45    132.28    -15.66     23.62
   19.4257    134.21    131.77    -16.39     23.62
   19.4359    133.74    131.28    -16.37     23.63
   19.4461    135.90    130.81    -13.74     23.63
   19.4562    135.82    130.37    -13.38     23.63
   19.4664    136.27    129.96    -12.52     23.63
   19.4765    133.82    129.57    -14.58     23.63
   19.4867    131.12    129.20    -16.91     23.63
   19.4969    134.01    128.86    -13.68     23.63
   19.5070    133.88    128.54    -13.49     23.63
   19.5172    133.74    128.25    -13.34     23.63
   19.5274    132.80    127.97    -14.00     23.63
   19.5375    132.99    127.72    -13.56     23.63
   19.5477    133.91    127.49    -12.41     23.63
   19.5579    133.38    127.28    -12.73     23.63
   19.5680    131.86    127.09    -14.06     23.63
   19.5782    131.85    126.92    -13.90     23.64
   19.5884    131.99    126.77    -13.61     23.64
   19.5985    132.48    126.64    -12.99     23.64
   19.6087    131.27    126.53    -14.09     23.64
   19.6188    131.23    126.43    -14.03     23.64
   19.6290    133.16    126.35    -12.02     23.64
   19.6392    130.45    126.29    -14.67     23.64
   19.6493    130.59    126.24    -14.48     23.64
   19.6595    131.21    126.21    -13.83     23.64
   19.6697    131.18    126.20    -13.85     23.64
   19.6798    132.66    126.20    -12.37     23.64
   19.6900    129.24    126.21    -15.80     23.64
   19.7002    128.62    126.23    -16.44     23.64
   19.7103    130.40    126.27    -14.70     23.64
   19.7205    131.62    126.32    -13.53     23.65
   19.7307    129.76    126.38    -15.45     23.65
   19.7408    130.65    126.46    -14.64     23.65
   19.7510    130.88    126.54    -14.49     23.65
   19.7612    131.00    126.64    -14.47     23.65
   19.7713    130.82    126.74    -14.75     23.65
   19.7815    131.06    126.85    -14.62     23.65
   19.7916    130.80    126.97    -15.00     23.65
   19.8018    130.57    127.10    -15.36     23.65
   19.8120    131.63    127.24    -14.44     23.65
   19.8221    129.44    127.38    -16.77     23.65
   19.8323    129.91    127.53    -16.45     23.65
   19.8425    129.73    127.69    -16.79     23.65
   19.8526    127.29    127.85    -19.39     23.65
   19.8628    129.80    128.01    -17.04     23.65
   19.8730    130.22    128.19    -16.80     23.66
   19.8831    127.76    128.36    -19.43     23.66
   19.8933    129.96    128.54    -17.41     23.66
   19.9035    130.77    128.72    -16.78     23.66
   19.9136    128.73    128.91    -19.01     23.66
   19.9238    130.89    129.09    -17.03     23.66
   19.9339    128.69    129.28    -19.42     23.66
   19.9441    128.67    129.47    -19.63     23.66
   19.9543    130.48    129.67    -18.02     23.66
   19.9644    131.33    129.86    -17.36     23.66
   19.9746    129.45    130.05    -19.43     23.66
   19.9848    130.48    130.25    -18.60     23.66
   19.9949    131.66    130.44    -17.61     23.66
   20.0051    129.66    130.63    -19.80     23.66
   20.0153    129.21    130.82    -20.44     23.67
   20.0254    131.14    131.00    -18.69     23.67
   20.0356    129.07    131.19    -20.95     23.67
   20.0458    130.95    131.37    -19.25     23.67
   20.0559    130.81    131.55    -19.57     23.67
   20.0661    127.99    131.73    -22.57     23.67
   20.0763    131.81    131.90    -18.92     23.67
   20.0864    130.46    132.07    -20.44     23.67
   20.0966    131.15    132.24    -19.92     23.67
   20.1067    133.04    132.39    -18.18     23.67
   20.1169    132.96    132.55    -18.42     23.67
   20.1271    132.12    132.70    -19.41     23.67
   20.1372    130.77    132.84    -20.90     23.67
   20.1474    131.29    132.98    -20.52     23.67
   20.1576    132.23    133.11    -19.71     23.67
   20.1677    132.29    133.23    -19.77     23.68
   20.1779    134.02    133.35    -18.16     23.68
   20.1881    130.05    133.46    -22.24     23.68
   20.1982    132.62    133.56    -19.77     23.68
   20.2084    131.27    133.66    -21.22     23.68
   20.2186    134.26    133.75    -18.32     23.68
   20.2287    132.92    133.83    -19.74     23.68
   20.2389    134.01    133.90    -18.72     23.68
   20.2490    133.44    133.96    -19.35     23.68
   20.2592    133.05    134.01    -19.79     23.68
   20.2694    134.12    134.06    -18.77     23.68
   20.2795    133.70    134.09    -19.22     23.68
   20.2897    136.18    134.12    -16.77     23.68
   20.2999    133.96    134.13    -19.00     23.68
   20.3100    133.13    134.14    -19.84     23.69
   20.3202    134.29    134.14    -18.68     23.69
   20.3304    136.12    134.13    -16.84     23.69
   20.3405    134.54    134.11    -18.40     23.69
   20.3507    133.71    134.07    -19.19     23.69
   20.3609    133.80    134.03    -19.06     23.69
   20.3710    132.01    133.98    -20.80     23.69
   20.3812    135.42    133.92    -17.33     23.69
   20.3914    133.90    133.85    -18.78     23.69
   20.4015    134.21    133.77    -18.39     23.69
   20.4117    132.69    133.68    -19.82     23.69
   20.4218    135.26    133.58    -17.15     23.69
   20.4320    132.30    133.47    -20.00     23.69
   20.4422    133.90    133.36    -18.29     23.69
   20.4523    134.19    133.23    -17.87     23.69
   20.4625    132.57    133.09    -19.35     23.70
   20.4727    134.99    132.95    -16.79     23.70
   20.4828    135.24    132.79    -16.38     23.70
   20.4930    134.54    132.63    -16.92     23.70
   20.5032    133.63    132.46    -17.66     23.70
   20.5133    135.18    132.28    -15.93     23.70
   20.5235    132.53    132.09    -18.39     23.70
   20.5337    134.76    131.89    -15.96     23.70
   20.5438    132.91    131.69    -17.61     23.70
   20.5540    131.64    131.48    -18.67     23.70
   20.5641    133.07    131.26    -17.02     23.70
   20.5743    132.46    131.03    -17.40     23.70
   20.5845    131.23    130.80    -18.40     23.70
   20.5946    131.84    130.56    -17.55     23.70
   20.6048    133.62    130.32    -15.53     23.71
   20.6150    131.10    130.06    -17.79     23.71
   20.6251    131.75    129.81    -16.89     23.71
   20.6353    131.46    129.54    -16.91     23.71
   20.6455    128.71    129.27    -19.39     23.71
   20.6556    131.62    129.00    -16.21     23.71
   20.6658    130.23    128.72    -17.32     23.71
   20.6760    129.64    128.44    -17.63     23.71
   20.6861    129.50    128.15    -17.48     23.71
   20.6963    127.99    127.86    -18.70     23.71
   20.7065    127.63    127.57    -18.77     23.71
   20.7166    129.46    127.27    -16.64     23.71
   20.7268    129.53    126.97    -16.27     23.71
   20.7369    126.82    126.67    -18.68     23.71
   20.7471    126.76    126.36    -18.43     23.71
   20.7573    127.03    126.05    -17.85     23.72
   20.7674    126.54    125.74    -18.03     23.72
   20.7776    126.10    125.43    -18.16     23.72
   20.7878    126.57    125.12    -17.38     23.72
   20.7979    124.34    124.81    -19.30     23.72
   20.8081    125.24    124.49    -18.08     23.72
   20.8183    123.63    124.17    -19.37     23.72
   20.8284    123.68    123.86    -19.01     23.72
   20.8386    124.17    123.54    -18.20     23.72
   20.8488    122.54    123.23    -19.52     23.72
   20.8589    122.72    122.91    -19.02     23.72
   20.8691    121.90    122.60    -19.53     23.72
   20.8792    123.34    122.29    -17.78     23.72
   20.8894    122.79    121.98    -18.02     23.72
   20.8996    121.40    121.67    -19.10     23.73
   20.9097    121.01    121.36    -19.18     23.73
   20.9199    118.93    121.06    -20.96     23.73
   20.9301    119.64    120.75    -19.94     23.73
   20.9402    121.21    120.45    -18.07     23.73
   20.9504    117.65    120.16    -21.34     23.73
   20.9606    117.97    119.86    -20.72     23.73
   20.9707    119.08    119.57    -19.32     23.73
   20.9809    117.12    119.29    -21.00     23.73
   20.9911    119.61    119.00    -18.22     23.73
   21.0012    118.61    118.73    -18.95     23.73
   21.0114    116.99    118.45    -20.29     23.73
   21.0216    117.69    118.19    -19.33     23.73
   21.0317    118.57    117.92    -18.18     23.73
   21.0419    115.42    117.67    -21.08     23.73
   21.0520    116.89    117.41    -19.35     23.74
   21.0622    117.80    117.17    -18.20     23.74
   21.0724    115.84    116.93    -19.92     23.74
   21.0825    118.15    116.69    -17.37     23.74
   21.0927    115.40    116.47    -19.90     23.74
   21.1029    115.60    116.24    -19.47     23.74
   21.1130    114.94    116.03    -19.92     23.74
   21.1232    115.04    115.82    -19.61     23.74
   21.1334    117.04    115.62    -17.41     23.74
   21.1435    114.73    115.43    -19.53     23.74
   21.1537    113.86    115.25    -20.22     23.74
   21.1639    113.11    115.07    -20.79     23.74
   21.1740    115.28    114.91    -18.46     23.74
   21.1842    113.96    114.75    -19.62     23.74
   21.1943    113.88    114.60    -19.55     23.75
   21.2045    113.80    114.46    -19.49     23.75
   21.2147    113.31    114.32    -19.84     23.75
   21.2248    113.46    114.20    -19.57     23.75
   21.2350    115.01    114.09    -17.91     23.75
   21.2452    114.56    113.99    -18.26     23.75
   21.2553    113.93    113.89    -18.79     23.75
   21.2655    113.69    113.81    -18.95     23.75
   21.2757    113.30    113.74    -19.27     23.75
   21.2858    112.38    113.67    -20.12     23.75
   21.2960    114.20    113.62    -18.25     23.75
   21.3062    112.51    113.58    -19.90     23.75
   21.3163    113.41    113.55    -18.97     23.75
   21.3265    114.03    113.53    -18.33     23.75
   21.3366    114.54    113.52    -17.81     23.75
   21.3468    111.28    113.53    -21.08     23.76
   21.3570    114.05    113.54    -18.32     23.76
   21.3671    113.55    113.57    -18.85     23.76
   21.3773    112.48    113.61    -19.96     23.76
   21.3875    113.04    113.66    -19.45     23.76
   21.3976    114.40    113.72    -18.15     23.76
   21.4078    113.14    113.79    -19.48     23.76
   21.4180    112.66    113.88    -20.05     23.76
   21.4281    113.88    113.98    -18.93     23.76
   21.4383    113.77    114.09    -19.15     23.76
   21.4485    113.52    114.21    -19.52     23.76
   21.4586    113.50    114.35    -19.68     23.76
   21.4688    112.01    114.50    -21.32     23.76
   21.4790    115.96    114.66    -17.53     23.76
   21.4891    116.16    114.83    -17.50     23.77
   21.4993    113.35    115.01    -20.49     23.77
   21.5094    114.67    115.21    -19.37     23.77
   21.5196    117.25    115.42    -17.00     23.77
   21.5298    114.97    115.64    -19.50     23.77
   21.5399    115.82    115.88    -18.89     23.77
   21.5501    118.28    116.12    -16.67     23.77
   21.5603    115.79    116.38    -19.42     23.77
   21.5704    118.23    116.65    -17.25     23.77
   21.5806    116.87    116.94    -18.90     23.77
   21.5908    115.60    117.23    -20.46     23.77
   21.6009    119.12    117.54    -17.25     23.77
   21.6111    118.54    117.86    -18.15     23.77
   21.6213    116.38    118.19    -20.64     23.77
   21.6314    120.29    118.53    -17.07     23.78
   21.6416    119.09    118.88    -18.62     23.78
   21.6517    120.12    119.24    -17.95     23.78
   21.6619    121.10    119.62    -17.35     23.78
   21.6721    122.11    120.00    -16.72     23.78
   21.6822    122.59    120.40    -16.64     23.78
   21.6924    125.20    120.80    -14.43     23.78
   21.7026    122.84    121.22    -17.21     23.78
   21.7127    122.75    121.64    -17.72     23.78
   21.7229    125.07    122.08    -15.84     23.78
   21.7331    126.51    122.52    -14.84     23.78
   21.7432    125.62    122.97    -16.18     23.78
   21.7534    126.63    123.44    -15.64     23.78
   21.7636    126.34    123.91    -16.40     23.78
   21.7737    125.89    124.38    -17.32     23.78
   21.7839    127.61    124.86    -16.08     23.79
   21.7941    131.01    125.36    -13.18     23.79
   21.8042    128.37    125.85    -16.31     23.79
   21.8144    130.26    126.35    -14.92     23.79
   21.8245    131.13    126.86    -14.56     23.79
   21.8347    129.60    127.37    -16.60     23.79
   21.8449    132.04    127.89    -14.68     23.79
   21.8550    133.35    128.41    -13.89     23.79
   21.8652    132.30    128.94    -15.47     23.79
   21.8754    133.66    129.47    -14.64     23.79
   21.8855    133.66    129.99    -15.16     23.79
   21.8957    134.69    130.53    -14.67     23.79
   21.9059    133.77    131.06    -16.12     23.79
   21.9160    134.52    131.59    -15.90     23.79
   21.9262    135.38    132.13    -15.58     23.80
   21.9364    133.85    132.66    -17.64     23.80
   21.9465    135.93    133.19    -16.09     23.80
   21.9567    133.79    133.72    -18.76     23.80
   21.9668    136.97    134.24    -16.10     23.80
   21.9770    137.90    134.77    -15.70     23.80
   21.9872    137.16    135.29    -16.96     23.80
   21.9973    137.32    135.80    -17.31     23.80
   22.0075    138.58    136.31    -16.56     23.80
   22.0177    137.90    136.81    -17.74     23.80
   22.0278    138.96    137.30    -17.17     23.80
   22.0380    138.42    137.79    -18.20     23.80
   22.0482    138.13    138.27    -18.97     23.80
   22.0583    138.93    138.73    -18.63     23.80
   22.0685    140.22    139.19    -17.80     23.80
   22.0787    139.99    139.64    -18.48     23.81
   22.0888    141.58    140.07    -17.32     23.81
   22.0990    140.86    140.49    -18.46     23.81
   22.1092    141.20    140.89    -18.52     23.81
   22.1193    140.88    141.28    -19.23     23.81
   22.1295    141.89    141.65    -18.59     23.81
   22.1396    141.30    142.01    -19.54     23.81
   22.1498    142.15    142.35    -19.03     23.81
   22.1600    141.45    142.67    -20.05     23.81
   22.1701    142.43    142.97    -19.37     23.81
   22.1803    142.44    143.26    -19.65     23.81
   22.1905    144.35    143.52    -18.00     23.81
   22.2006    141.05    143.76    -21.54     23.81
   22.2108    142.71    143.98    -20.10     23.81
   22.2210    145.09    144.17    -17.91     23.82
   22.2311    144.49    144.34    -18.68     23.82
   22.2413    144.54    144.49    -18.78     23.82
   22.2515    142.73    144.62    -20.72     23.82
   22.2616    139.31    144.71    -24.23     23.82
   22.2718    142.74    144.79    -20.88     23.82
   22.2819    142.04    144.83    -21.62     23.82
   22.2921    141.54    144.85    -22.14     23.82
   22.3023    143.41    144.85    -20.27     23.82
   22.3124    144.94    144.81    -18.70     23.82
   22.3226    143.77    144.75    -19.81     23.82
   22.3328    143.42    144.67    -20.08     23.82
   22.3429    144.73    144.55    -18.65     23.82
   22.3531    141.42    144.41    -21.82     23.82
   22.3633    143.03    144.24    -20.04     23.82
   22.3734    141.93    144.05    -20.95     23.83
   22.3836    142.57    143.83    -20.09     23.83
   22.3938    142.91    143.58    -19.50     23.83
   22.4039    141.92    143.31    -20.22     23.83
   22.4141    139.26    143.00    -22.57     23.83
   22.4243    141.13    142.68    -20.38     23.83
   22.4344    141.26    142.33    -19.90     23.83
   22.4446    140.31    141.95    -20.47     23.83
   22.4547    139.30    141.56    -21.09     23.83
   22.4649    139.27    141.13    -20.69     23.83
   22.4751    139.84    140.69    -19.68     23.83
   22.4852    137.84    140.22    -21.21     23.83
   22.4954    139.15    139.73    -19.41     23.83
   22.5056    135.20    139.22    -22.85     23.83
   22.5157    137.93    138.70    -19.60     23.84
   22.5259    136.16    138.15    -20.82     23.84
   22.5361    134.79    137.58    -21.62     23.84
   22.5462    136.05    137.00    -19.78     23.84
   22.5564    134.74    136.39    -20.48     23.84
   22.5666    132.77    135.78    -21.84     23.84
   22.5767    133.76    135.15    -20.22     23.84
   22.5869    131.72    134.50    -21.61     23.84
   22.5970    131.68    133.84    -20.99     23.84
   22.6072    132.39    133.17    -19.61     23.84
   22.6174    131.12    132.48    -20.19     23.84
   22.6275    129.66    131.79    -20.96     23.84
   22.6377    129.87    131.09    -20.05     23.84
   22.6479    128.73    130.37    -20.47     23.84
   22.6580    127.57    129.65    -20.91     23.84
   22.6682    128.91    128.91    -18.83     23.85
   22.6784    126.48    128.17    -20.52     23.85
   22.6885    126.63    127.43    -19.63     23.85
   22.6987    127.13    126.68    -18.38     23.85
   22.7089    125.57    125.92    -19.18     23.85
   22.7190    123.52    125.16    -20.47     23.85
   22.7292    124.68    124.40    -18.55     23.85
   22.7394    125.13    123.63    -17.33     23.85
   22.7495    121.61    122.86    -20.08     23.85
   22.7597    120.16    122.09    -20.76     23.85
   22.7698    121.61    121.32    -18.54     23.85
   22.7800    119.87    120.54    -19.50     23.85
   22.7902    120.18    119.76    -18.41     23.85
   22.8003    120.39    118.99    -17.43     23.85
   22.8105    117.81    118.22    -19.24     23.86
   22.8207    118.48    117.45    -17.80     23.86
   22.8308    117.16    116.68    -18.35     23.86
   22.8410    116.96    115.91    -17.78     23.86
   22.8512    116.01    115.14    -17.96     23.86
   22.8613    115.16    114.39    -18.06     23.86
   22.8715    114.38    113.63    -18.08     23.86
   22.8817    112.96    112.87    -18.74     23.86
   22.8918    113.23    112.13    -17.73     23.86
   22.9020    112.73    111.38    -17.48     23.86
   22.9121    112.71    110.65    -16.77     23.86
   22.9223    112.27    109.91    -16.47     23.86
   22.9325    110.71    109.18    -17.30     23.86
   22.9426    110.20    108.46    -17.09     23.86
   22.9528    109.63    107.74    -16.94     23.86
   22.9630    108.93    107.03    -16.93     23.87
   22.9731    108.46    106.34    -16.71     23.87
   22.9833    107.14    105.64    -17.33     23.87
   22.9935    106.04    104.95    -17.74     23.87
   23.0036    106.63    104.28    -16.48     23.87
   23.0138    105.95    103.60    -16.48     23.87
   23.0240    105.35    102.93    -16.41     23.87
   23.0341    107.97    102.28    -13.14     23.87
   23.0443    103.71    101.63    -16.75     23.87
   23.0545    103.73    100.99    -16.09     23.87
   23.0646    104.87    100.37    -14.33     23.87
   23.0748    102.99     99.74    -15.58     23.87
   23.0849    100.84     99.13    -17.12     23.87
   23.0951    103.18     98.53    -14.18     23.87
   23.1053    102.57     97.93    -14.19     23.88
   23.1154    100.21     97.35    -15.97     23.88
   23.1256     97.40     96.77    -18.20     23.88
   23.1358     99.96     96.20    -15.07     23.88
   23.1459     97.61     95.64    -16.86     23.88
   23.1561     98.94     95.09    -14.98     23.88
   23.1663     99.01     94.55    -14.37     23.88
   23.1764     97.48     94.02    -15.37     23.88
   23.1866     95.69     93.49    -16.63     23.88
   23.1968     96.34     92.98    -15.47     23.88
   23.2069     94.60     92.48    -16.71     23.88
   23.2171     94.98     91.98    -15.83     23.88
   23.2272     94.51     91.50    -15.82     23.88
   23.2374     94.60     91.02    -15.25     23.88
   23.2476     95.14     90.55    -14.24     23.88
   23.2577     92.69     90.09    -16.23     23.89
   23.2679     92.15     89.64    -16.32     23.89
   23.2781     92.90     89.20    -15.13     23.89
   23.2882     93.00     88.77    -14.60     23.89
   23.2984     92.18     88.34    -14.99     23.89
   23.3086     92.02     87.92    -14.73     23.89
   23.3187     89.23     87.52    -17.12     23.89
   23.3289     90.47     87.12    -15.48     23.89
   23.3391     88.04     86.73    -17.52     23.89
   23.3492     88.55     86.34    -16.62     23.89
   23.3594     88.25     85.97    -16.55     23.89
   23.3695     89.73     85.60    -14.70     23.89
   23.3797     88.05     85.24    -16.02     23.89
   23.3899     87.45     84.89    -16.27     23.89
   23.4000     87.41     84.54    -15.96     23.90
   23.4102     87.09     84.21    -15.95     23.90
   23.4204     86.72     83.87    -15.98     23.90
   23.4305     85.88     83.55    -16.50     23.90
   23.4407     86.46     83.23    -15.60     23.90
   23.4509     86.10     82.92    -15.65     23.90
   23.4610     85.35     82.62    -16.10     23.90
   23.4712     83.58     82.32    -17.57     23.90
   23.4814     82.83     82.03    -18.03     23.90
   23.4915     85.52     81.75    -15.06     23.90
   23.5017     83.60     81.47    -16.70     23.90
   23.5119     82.43     81.20    -17.60     23.90
   23.5220     83.34     80.93    -16.42     23.90
   23.5322     82.41     80.67    -17.09     23.90
   23.5423     82.92     80.41    -16.32     23.91
   23.5525     80.82     80.16    -18.17     23.91
   23.5627     81.70     79.92    -17.05     23.91
   23.5728     81.45     79.68    -17.06     23.91
   23.5830     80.99     79.44    -17.28     23.91
   23.5932     80.99     79.21    -17.05     23.91
   23.6033     80.92     78.99    -16.90     23.91
   23.6135     79.26     78.76    -18.33     23.91
   23.6237     78.59     78.55    -18.79     23.91
   23.6338     79.09     78.33    -18.07     23.91
   23.6440     79.85     78.12    -17.10     23.91
   23.6542     78.83     77.92    -17.92     23.91
   23.6643     78.85     77.72    -17.70     23.91
   23.6745     77.91     77.52    -18.44     23.91
   23.6846     78.03     77.33    -18.13     23.91
   23.6948     77.57     77.14    -18.40     23.92
   23.7050     77.45     76.95    -18.33     23.92
   23.7151     76.50     76.77    -19.10     23.92
   23.7253     76.42     76.59    -19.00     23.92
   23.7355     77.80     76.41    -17.44     23.92
   23.7456     76.36     76.24    -18.71     23.92
   23.7558     74.50     76.07    -20.40     23.92
   23.7660     76.34     75.90    -18.39     23.92
   23.7761     75.76     75.73    -18.80     23.92
   23.7863     75.55     75.57    -18.85     23.92
   23.7965     75.65     75.41    -18.59     23.92
   23.8066     74.52     75.25    -19.56     23.92
   23.8168     74.53     75.10    -19.40     23.92
   23.8270     75.10     74.94    -18.67     23.92
   23.8371     73.70     74.79    -19.92     23.93
   23.8473     73.77     74.64    -19.70     23.93
   23.8574     72.72     74.50    -20.61     23.93
   23.8676     73.35     74.35    -19.83     23.93
   23.8778     72.47     74.21    -20.57     23.93
   23.8879     74.26     74.07    -18.64     23.93
   23.8981     71.86     73.93    -20.90     23.93
   23.9083     72.09     73.79    -20.53     23.93
   23.9184     72.16     73.65    -20.32     23.93
   23.9286     71.99     73.52    -20.36     23.93
   23.9388     71.75     73.38    -20.46     23.93
   23.9489     70.46     73.25    -21.62     23.93
   23.9591     72.18     73.12    -19.77     23.93
   23.9693     73.05     72.99    -18.77     23.93
   23.9794     71.23     72.86    -20.46     23.93
   23.9896     70.92     72.74    -20.65     23.94
   23.9997     70.74     72.61    -20.70     23.94
   24.0099     70.65     72.49    -20.67     23.94
   24.0201     71.20     72.36    -19.99     23.94
   24.0302     70.42     72.24    -20.65     23.94
   24.0404     68.58     72.12    -22.37     23.94
   24.0506     69.92     72.00    -20.91     23.94
   24.0607     69.88     71.88    -20.83     23.94
   24.0709     68.74     71.76    -21.85     23.94
   24.0811     69.80     71.64    -20.67     23.94
   24.0912     68.67     71.53    -21.69     23.94
   24.1014     68.58     71.41    -21.66     23.94
   24.1116     69.23     71.29    -20.89     23.94
   24.1217     68.85     71.18    -21.16     23.94
   24.1319     68.99     71.07    -20.91     23.95
   24.1421     67.16     70.95    -22.62     23.95
   24.1522     67.46     70.84    -22.21     23.95
   24.1624     69.02     70.73    -20.54     23.95
   24.1725     67.18     70.62    -22.27     23.95
   24.1827     66.35     70.51    -22.99     23.95
   24.1929     66.65     70.40    -22.58     23.95
   24.2030     68.59     70.29    -20.53     23.95
   24.2132     66.35     70.18    -22.66     23.95
   24.2234     65.70     70.07    -23.20     23.95
   24.2335     68.26     69.96    -20.53     23.95
   24.2437     66.40     69.85    -22.28     23.95
   24.2539     65.13     69.75    -23.45     23.95
   24.2640     65.59     69.64    -22.88     23.95
   24.2742     66.03     69.53    -22.33     23.95
   24.2844     65.65     69.43    -22.61     23.96
   24.2945     67.08     69.32    -21.07     23.96
   24.3047     65.69     69.22    -22.36     23.96
   24.3148     65.49     69.11    -22.45     23.96
   24.3250     65.74     69.01    -22.10     23.96
   24.3352     64.43     68.91    -23.31     23.96
   24.3453     65.17     68.80    -22.46     23.96
   24.3555     64.88     68.70    -22.65     23.96
   24.3657     65.35     68.60    -22.08     23.96
   24.3758     64.23     68.50    -23.10     23.96
   24.3860     64.96     68.39    -22.26     23.96
   24.3962     64.33     68.29    -22.79     23.96
   24.4063     64.16     68.19    -22.86     23.96
   24.4165     65.13     68.09    -21.79     23.96
   24.4267     63.85     67.99    -22.97     23.97
   24.4368     63.93     67.89    -22.79     23.97
   24.4470     63.35     67.79    -23.27     23.97
   24.4572     64.21     67.69    -22.31     23.97
   24.4673     63.80     67.59    -22.62     23.97
   24.4775     63.93     67.49    -22.39     23.97
   24.4876     63.05     67.39    -23.17     23.97
   24.4978     64.36     67.29    -21.76     23.97
   24.5080     64.18     67.19    -21.84     23.97
   24.5181     63.66     67.10    -22.27     23.97
   24.5283     63.82     67.00    -22.01     23.97
   24.5385     62.74     66.90    -22.99     23.97
   24.5486     62.30     66.80    -23.33     23.97
   24.5588     63.06     66.71    -22.48     23.97
   24.5690     62.47     66.61    -22.97     23.97
   24.5791     62.53     66.51    -22.81     23.98
   24.5893     62.55     66.42    -22.70     23.98
   24.5995     61.71     66.32    -23.44     23.98
   24.6096     61.98     66.22    -23.07     23.98
   24.6198     62.97     66.13    -21.99     23.98
   24.6299     62.34     66.03    -22.52     23.98
   24.6401     62.39     65.94    -22.38     23.98
   24.6503     62.20     65.84    -22.47     23.98
   24.6604     61.47     65.75    -23.11     23.98
   24.6706     61.87     65.65    -22.61     23.98
   24.6808     61.38     65.56    -23.01     23.98
   24.6909     61.87     65.46    -22.42     23.98
   24.7011     60.88     65.37    -23.32     23.98
   24.7113     60.87     65.27    -23.23     23.98
   24.7214     60.22     65.18    -23.79     23.99
   24.7316     62.20     65.09    -21.72     23.99
   24.7418     60.62     64.99    -23.20     23.99
   24.7519     60.94     64.90    -22.79     23.99
   24.7621     60.52     64.81    -23.12     23.99
   24.7723     60.99     64.71    -22.55     23.99
   24.7824     61.45     64.62    -22.00     23.99
   24.7926     60.35     64.53    -23.01     23.99
   24.8027     59.49     64.44    -23.78     23.99
   24.8129     59.49     64.35    -23.69     23.99
   24.8231     60.65     64.25    -22.43     23.99
   24.8332     60.16     64.16    -22.83     23.99
   24.8434     59.91     64.07    -22.99     23.99
   24.8536     60.10     63.98    -22.71     23.99
   24.8637     60.70     63.89    -22.02     23.99
   24.8739     59.74     63.80    -22.89     24.00
   24.8841     59.05     63.71    -23.49     24.00
   24.8942     59.54     63.62    -22.91     24.00
   24.9044     58.66     63.53    -23.70     24.00
   24.9146     59.72     63.43    -22.54     24.00
   24.9247     57.51     63.35    -24.67     24.00
   24.9349     59.52     63.25    -22.56     24.00
   24.9450     58.93     63.17    -23.07     24.00
   24.9552     59.98     63.08    -21.93     24.00
   24.9654     59.54     62.99    -22.28     24.00
   24.9755     58.87     62.90    -22.86     24.00
   24.9857     59.72     62.81    -21.92     24.00
   24.9959     59.01     62.72    -22.54     24.00
   25.0060     58.15     62.63    -23.31     24.00
   25.0162     58.68     62.54    -22.69     24.01
   25.0264     59.11     62.45    -22.17     24.01
   25.0365     58.50     62.37    -22.70     24.01
   25.0467     58.16     62.28    -22.95     24.01
   25.0569     59.06     62.19    -21.96     24.01
   25.0670     58.50     62.10    -22.43     24.01
   25.0772     58.70     62.01    -22.14     24.01
   25.0874     58.61     61.93    -22.15     24.01
   25.0975     58.59     61.84    -22.08     24.01
   25.1077     58.20     61.75    -22.38     24.01
   25.1178     56.96     61.67    -23.54     24.01
   25.1280     59.27     61.58    -21.14     24.01
   25.1382     57.20     61.49    -23.12     24.01
   25.1483     58.03     61.41    -22.21     24.01
   25.1585     58.12     61.32    -22.03     24.01
   25.1687     57.54     61.23    -22.52     24.02
   25.1788     58.46     61.15    -21.52     24.02
   25.1890     57.91     61.06    -21.98     24.02
   25.1992     57.02     60.98    -22.79     24.02
   25.2093     57.09     60.89    -22.63     24.02
   25.2195     57.62     60.81    -22.02     24.02
   25.2297     58.95     60.72    -20.60     24.02
   25.2398     57.24     60.64    -22.23     24.02
   25.2500     56.74     60.55    -22.64     24.02
   25.2601     57.15     60.47    -22.15     24.02
   25.2703     57.64     60.38    -21.57     24.02
   25.2805     58.10     60.30    -21.03     24.02
   25.2906     57.46     60.21    -21.58     24.02
   25.3008     57.77     60.13    -21.19     24.02
   25.3110     56.09     60.05    -22.79     24.03
   25.3211     55.96     59.96    -22.83     24.03
   25.3313     57.73     59.88    -20.98     24.03
   25.3415     56.77     59.80    -21.86     24.03
   25.3516     56.52     59.71    -22.02     24.03
   25.3618     55.44     59.63    -23.02     24.03
   25.3720     57.20     59.55    -21.18     24.03
   25.3821     56.24     59.47    -22.06     24.03
   25.3923     56.81     59.38    -21.40     24.03
   25.4024     57.34     59.30    -20.79     24.03
   25.4126     56.29     59.22    -21.76     24.03
   25.4228     56.34     59.14    -21.63     24.03
   25.4329     56.23     59.05    -21.65     24.03
   25.4431     55.47     58.97    -22.33     24.03
   25.4533     56.58     58.89    -21.14     24.04
   25.4634     56.55     58.81    -21.09     24.04
   25.4736     55.46     58.73    -22.10     24.04
   25.4838     56.97     58.65    -20.51     24.04
   25.4939     55.87     58.57    -21.53     24.04
   25.5041     57.18     58.49    -20.14     24.04
   25.5143     55.69     58.41    -21.55     24.04
   25.5244     55.46     58.33    -21.70     24.04
   25.5346     55.40     58.25    -21.68     24.04
   25.5448     55.66     58.17    -21.34     24.04
   25.5549     55.01     58.09    -21.91     24.04
   25.5651     55.21     58.01    -21.63     24.04
   25.5752     55.54     57.93    -21.22     24.04
   25.5854     56.34     57.85    -20.34     24.04
   25.5956     55.21     57.77    -21.39     24.04
   25.6057     54.22     57.69    -22.30     24.05
   25.6159     55.20     57.61    -21.24     24.05
   25.6261     55.23     57.53    -21.13     24.05
   25.6362     54.38     57.45    -21.90     24.05
   25.6464     53.99     57.38    -22.22     24.05
   25.6566     55.09     57.30    -21.04     24.05
   25.6667     54.08     57.22    -21.97     24.05
   25.6769     54.12     57.14    -21.85     24.05
   25.6871     55.51     57.06    -20.38     24.05
   25.6972     55.20     56.99    -20.62     24.05
   25.7074     54.57     56.91    -21.17     24.05
   25.7175     54.61     56.83    -21.05     24.05
   25.7277     54.18     56.76    -21.41     24.05
   25.7379     53.75     56.68    -21.76     24.05
   25.7480     55.13     56.60    -20.30     24.06
   25.7582     54.90     56.53    -20.46     24.06
   25.7684     54.38     56.45    -20.90     24.06
   25.7785     54.59     56.38    -20.62     24.06
   25.7887     53.32     56.30    -21.81     24.06
   25.7989     54.30     56.22    -20.75     24.06
   25.8090     54.30     56.15    -20.68     24.06
   25.8192     54.85     56.07    -20.05     24.06
   25.8294     52.49     56.00    -22.34     24.06
   25.8395     53.59     55.92    -21.16     24.06
   25.8497     53.40     55.85    -21.28     24.06
   25.8599     53.33     55.77    -21.27     24.06
   25.8700     54.58     55.70    -19.95     24.06
   25.8802     54.23     55.63    -20.23     24.06
   25.8903     54.01     55.55    -20.37     24.06
   25.9005     53.60     55.48    -20.71     24.07
   25.9107     52.70     55.41    -21.54     24.07
   25.9208     53.31     55.33    -20.85     24.07
   25.9310     53.57     55.26    -20.52     24.07
   25.9412     53.27     55.19    -20.75     24.07
   25.9513     53.34     55.11    -20.60     24.07
   25.9615     54.04     55.04    -19.83     24.07
   25.9717     53.37     54.97    -20.43     24.07
   25.9818     52.73     54.90    -21.00     24.07
   25.9920     53.54     54.83    -20.12     24.07
   26.0022     52.31     54.75    -21.27     24.07
   26.0123     52.30     54.68    -21.21     24.07
   26.0225     52.98     54.61    -20.46     24.07
   26.0326     53.09     54.54    -20.28     24.07
   26.0428     53.69     54.47    -19.61     24.08
   26.0530     52.48     54.40    -20.75     24.08
   26.0631     52.74     54.33    -20.42     24.08
   26.0733     51.93     54.26    -21.16     24.08
   26.0835     52.84     54.19    -20.18     24.08
   26.0936     52.15     54.12    -20.80     24.08
   26.1038     52.93     54.05    -19.95     24.08
   26.1140     52.13     53.98    -20.68     24.08
   26.1241     53.09     53.92    -19.66     24.08
   26.1343     52.68     53.85    -20.00     24.08
   26.1445     52.29     53.78    -20.32     24.08
   26.1546     52.37     53.71    -20.17     24.08
   26.1648     51.60     53.64    -20.87     24.08
   26.1750     51.15     53.58    -21.26     24.08
   26.1851     51.75     53.51    -20.59     24.08
   26.1953     51.46     53.44    -20.81     24.09
   26.2054     52.42     53.38    -19.79     24.09
   26.2156     51.95     53.31    -20.19     24.09
   26.2258     51.81     53.24    -20.26     24.09
   26.2359     51.27     53.18    -20.74     24.09
   26.2461     51.59     53.11    -20.35     24.09
   26.2563     51.10     53.05    -20.78     24.09
   26.2664     52.18     52.98    -19.63     24.09
   26.2766     50.98     52.92    -20.77     24.09
   26.2868     51.69     52.85    -19.99     24.09
   26.2969     50.18     52.79    -21.44     24.09
   26.3071     52.88     52.73    -18.68     24.09
   26.3173     51.59     52.67    -19.91     24.09
   26.3274     51.28     52.60    -20.15     24.09
   26.3376     51.15     52.54    -20.22     24.10
   26.3477     51.55     52.48    -19.76     24.10
   26.3579     50.69     52.42    -20.56     24.10
   26.3681     51.21     52.36    -19.98     24.10
   26.3782     50.75     52.30    -20.38     24.10
   26.3884     51.11     52.24    -19.96     24.10
   26.3986     51.48     52.18    -19.53     24.10
   26.4087     51.39     52.12    -19.56     24.10
   26.4189     50.54     52.06    -20.35     24.10
   26.4291     51.20     52.00    -19.63     24.10
   26.4392     50.73     51.94    -20.04     24.10
   26.4494     50.70     51.88    -20.01     24.10
   26.4596     50.38     51.82    -20.27     24.10
   26.4697     50.37     51.77    -20.23     24.10
   26.4799     49.84     51.71    -20.70     24.10
   26.4901     51.07     51.66    -19.42     24.11
   26.5002     50.98     51.60    -19.45     24.11
   26.5104     51.58     51.55    -18.80     24.11
   26.5205     50.60     51.49    -19.72     24.11
   26.5307     49.31     51.44    -20.96     24.11
   26.5409     50.19     51.38    -20.02     24.11
   26.5510     50.66     51.33    -19.50     24.11
   26.5612     50.24     51.28    -19.87     24.11
   26.5714     50.20     51.23    -19.86     24.11
   26.5815     50.61     51.18    -19.40     24.11
   26.5917     50.68     51.13    -19.28     24.11
   26.6019     50.59     51.08    -19.32     24.11
   26.6120     50.81     51.03    -19.05     24.11
   26.6222     49.91     50.98    -19.90     24.11
   26.6324     50.63     50.93    -19.13     24.12
   26.6425     50.02     50.88    -19.69     24.12
   26.6527     49.49     50.84    -20.18     24.12
   26.6628     50.97     50.79    -18.65     24.12
   26.6730     50.70     50.75    -18.88     24.12
   26.6832     50.05     50.70    -19.48     24.12
   26.6933     50.14     50.66    -19.35     24.12
   26.7035     49.52     50.62    -19.93     24.12
   26.7137     49.83     50.57    -19.57     24.12
   26.7238     49.95     50.53    -19.41     24.12
   26.7340     50.00     50.49    -19.32     24.12
   26.7442     49.83     50.45    -19.45     24.12
   26.7543     50.33     50.41    -18.91     24.12
   26.7645     49.32     50.37    -19.88     24.12
   26.7747     50.05     50.34    -19.12     24.12
   26.7848     49.95     50.30    -19.18     24.13
   26.7950     50.32     50.27    -18.78     24.13
   26.8052     49.76     50.23    -19.30     24.13
   26.8153     50.45     50.20    -18.58     24.13
   26.8255     49.85     50.16    -19.14     24.13
   26.8356     49.03     50.13    -19.93     24.13
   26.8458     50.23     50.10    -18.70     24.13
   26.8560     50.78     50.07    -18.12     24.13
   26.8661     48.97     50.04    -19.90     24.13
   26.8763     48.89     50.02    -19.96     24.13
   26.8865     48.52     49.99    -20.30     24.13
   26.8966     49.71     49.96    -19.08     24.13
   26.9068     48.37     49.94    -20.40     24.13
   26.9170     49.93     49.92    -18.82     24.13
   26.9271     49.70     49.89    -19.02     24.14
   26.9373     49.24     49.87    -19.46     24.14
   26.9475     49.13     49.85    -19.55     24.14
   26.9576     48.40     49.83    -20.26     24.14
   26.9678     49.55     49.82    -19.10     24.14
   26.9779     50.11     49.80    -18.52     24.14
   26.9881     49.71     49.79    -18.91     24.14
   26.9983     49.44     49.77    -19.16     24.14
   27.0084     49.89     49.76    -18.70     24.14
   27.0186     48.33     49.75    -20.25     24.14
   27.0288     48.62     49.74    -19.95     24.14
   27.0389     49.21     49.73    -19.35     24.14
   27.0491     48.91     49.73    -19.65     24.14
   27.0593     49.11     49.72    -19.44     24.14
   27.0694     49.54     49.72    -19.01     24.14
   27.0796     49.23     49.71    -19.31     24.15
   27.0898     49.63     49.71    -18.91     24.15
   27.0999     49.16     49.71    -19.38     24.15
   27.1101     49.53     49.71    -19.01     24.15
   27.1202     49.35     49.72    -19.20     24.15
   27.1304     49.12     49.72    -19.43     24.15
   27.1406     49.07     49.73    -19.49     24.15
   27.1507     49.70     49.74    -18.87     24.15
   27.1609     49.78     49.75    -18.80     24.15
   27.1711     47.91     49.76    -20.68     24.15
   27.1812     49.47     49.77    -19.13     24.15
   27.1914     48.71     49.78    -19.90     24.15
   27.2016     49.71     49.80    -18.92     24.15
   27.2117     49.87     49.82    -18.78     24.15
   27.2219     48.24     49.84    -20.43     24.16
   27.2321     47.76     49.86    -20.93     24.16
   27.2422     50.48     49.88    -18.23     24.16
   27.2524     48.37     49.91    -20.37     24.16
   27.2626     49.15     49.93    -19.61     24.16
   27.2727     49.05     49.96    -19.74     24.16
   27.2829     49.04     49.99    -19.78     24.16
   27.2930     48.47     50.02    -20.38     24.16
   27.3032     48.62     50.05    -20.26     24.16
   27.3134     50.27     50.09    -18.65     24.16
   27.3235     50.13     50.13    -18.83     24.16
   27.3337     49.37     50.16    -19.62     24.16
   27.3439     49.49     50.21    -19.55     24.16
   27.3540     49.32     50.25    -19.76     24.16
   27.3642     49.99     50.29    -19.13     24.16
   27.3744     49.18     50.34    -19.99     24.17
   27.3845     50.47     50.39    -18.75     24.17
   27.3947     49.57     50.44    -19.70     24.17
   27.4049     51.04     50.49    -18.28     24.17
   27.4150     48.80     50.54    -20.57     24.17
   27.4252     48.94     50.60    -20.49     24.17
   27.4353     50.59     50.65    -18.89     24.17
   27.4455     49.91     50.71    -19.63     24.17
   27.4557     50.62     50.77    -18.98     24.17
   27.4658     50.03     50.84    -19.64     24.17
   27.4760     49.49     50.90    -20.24     24.17
   27.4862     50.41     50.97    -19.39     24.17
   27.4963     49.48     51.03    -20.38     24.17
   27.5065     50.00     51.10    -19.93     24.17
   27.5167     49.95     51.18    -20.06     24.18
   27.5268     50.21     51.25    -19.87     24.18
   27.5370     50.58     51.33    -19.58     24.18
   27.5472     50.95     51.40    -19.28     24.18
   27.5573     51.19     51.48    -19.12     24.18
   27.5675     50.36     51.56    -20.03     24.18
   27.5777     49.99     51.65    -20.49     24.18
   27.5878     51.04     51.73    -19.52     24.18
   27.5980     50.46     51.82    -20.19     24.18
   27.6081     50.57     51.90    -20.16     24.18
   27.6183     50.70     51.99    -20.12     24.18
   27.6285     52.03     52.08    -18.88     24.18
   27.6386     50.68     52.17    -20.32     24.18
   27.6488     50.96     52.27    -20.14     24.18
   27.6590     51.14     52.37    -20.06     24.19
   27.6691     51.09     52.46    -20.20     24.19
   27.6793     51.44     52.56    -19.95     24.19
   27.6895     50.79     52.66    -20.70     24.19
   27.6996     51.23     52.76    -20.36     24.19
   27.7098     51.16     52.87    -20.54     24.19
   27.7200     51.90     52.97    -19.90     24.19
   27.7301     52.26     53.08    -19.65     24.19
   27.7403     51.24     53.18    -20.77     24.19
   27.7504     52.98     53.29    -19.14     24.19
   27.7606     53.62     53.40    -18.61     24.19
   27.7708     51.35     53.51    -20.99     24.19
   27.7809     53.46     53.62    -18.99     24.19
   27.7911     51.51     53.74    -21.06     24.19
   27.8013     53.56     53.85    -19.12     24.19
   27.8114     53.26     53.96    -19.53     24.20
   27.8216     52.93     54.08    -19.98     24.20
   27.8318     53.66     54.20    -19.37     24.20
   27.8419     53.48     54.31    -19.66     24.20
   27.8521     54.86     54.43    -18.40     24.20
   27.8623     54.34     54.55    -19.04     24.20
   27.8724     54.57     54.67    -18.93     24.20
   27.8826     55.29     54.79    -18.33     24.20
   27.8928     54.57     54.91    -19.17     24.20
   27.9029     55.70     55.03    -18.16     24.20
   27.9131     54.76     55.15    -19.22     24.20
   27.9232     55.52     55.28    -18.59     24.20
   27.9334     55.29     55.40    -18.94     24.20
   27.9436     55.48     55.52    -18.87     24.20
   27.9537     55.96     55.64    -18.51     24.21
   27.9639     55.93     55.76    -18.66     24.21
   27.9741     56.00     55.89    -18.72     24.21
   27.9842     56.12     56.01    -18.72     24.21
   27.9944     56.97     56.13    -17.99     24.21
   28.0046     57.16     56.25    -17.92     24.21
   28.0147     58.19     56.37    -17.01     24.21
   28.0249     56.29     56.49    -19.03     24.21
   28.0351     57.27     56.61    -18.17     24.21
   28.0452     57.20     56.73    -18.36     24.21
   28.0554     57.76     56.85    -17.92     24.21
   28.0655     58.46     56.96    -17.33     24.21
   28.0757     58.81     57.08    -17.10     24.21
   28.0859     59.70     57.20    -16.33     24.21
   28.0960     58.09     57.31    -18.05     24.21
   28.1062     57.83     57.42    -18.42     24.22
   28.1164     59.67     57.53    -16.69     24.22
   28.1265     58.27     57.64    -18.20     24.22
   28.1367     60.44     57.75    -16.14     24.22
   28.1469     59.54     57.86    -17.15     24.22
   28.1570     59.32     57.96    -17.47     24.22
   28.1672     59.76     58.07    -17.14     24.22
   28.1774     60.30     58.17    -16.70     24.22
   28.1875     60.85     58.26    -16.24     24.22
   28.1977     61.65     58.36    -15.54     24.22
   28.2079     60.95     58.45    -16.33     24.22
   28.2180     60.84     58.55    -16.54     24.22
   28.2282     60.48     58.63    -16.98     24.22
   28.2383     61.62     58.72    -15.93     24.22
   28.2485     62.46     58.80    -15.17     24.23
   28.2587     61.16     58.88    -16.55     24.23
   28.2688     61.20     58.96    -16.59     24.23
   28.2790     60.77     59.03    -17.09     24.23
   28.2892     60.71     59.10    -17.22     24.23
   28.2993     61.90     59.17    -16.10     24.23
   28.3095     62.08     59.24    -15.99     24.23
   28.3197     62.21     59.30    -15.92     24.23
   28.3298     61.49     59.35    -16.69     24.23
   28.3400     61.67     59.40    -16.56     24.23
   28.3502     61.13     59.45    -17.15     24.23
   28.3603     61.52     59.50    -16.81     24.23
   28.3705     61.16     59.54    -17.21     24.23
   28.3806     62.90     59.57    -15.50     24.23
   28.3908     60.76     59.61    -17.68     24.23
   28.4010     62.01     59.63    -16.45     24.24
   28.4111     60.88     59.66    -17.61     24.24
   28.4213     61.29     59.68    -17.22     24.24
   28.4315     61.34     59.69    -17.18     24.24
   28.4416     62.62     59.70    -15.91     24.24
   28.4518     61.04     59.71    -17.50     24.24
   28.4620     60.77     59.71    -17.77     24.24
   28.4721     62.52     59.70    -16.01     24.24
   28.4823     60.35     59.69    -18.17     24.24
   28.4925     60.68     59.68    -17.83     24.24
   28.5026     60.34     59.66    -18.15     24.24
   28.5128     60.51     59.64    -17.96     24.24
   28.5230     60.07     59.61    -18.37     24.24
   28.5331     61.28     59.58    -17.13     24.24
   28.5433     60.54     59.54    -17.83     24.25
   28.5534     59.80     59.50    -18.53     24.25
   28.5636     59.36     59.45    -18.92     24.25
   28.5738     59.86     59.39    -18.36     24.25
   28.5839     59.79     59.34    -18.38     24.25
   28.5941     59.08     59.28    -19.03     24.25
   28.6043     59.30     59.21    -18.74     24.25
   28.6144     58.82     59.14    -19.15     24.25
   28.6246     59.23     59.06    -18.66     24.25
   28.6348     59.52     58.98    -18.29     24.25
   28.6449     58.55     58.89    -19.17     24.25
   28.6551     58.75     58.80    -18.88     24.25
   28.6653     59.32     58.71    -18.22     24.25
   28.6754     58.57     58.61    -18.87     24.25
   28.6856     58.75     58.51    -18.59     24.25
   28.6957     58.35     58.40    -18.88     24.26
   28.7059     59.79     58.29    -17.33     24.26
   28.7161     57.20     58.17    -19.80     24.26
   28.7262     57.40     58.05    -19.48     24.26
   28.7364     57.32     57.93    -19.44     24.26
   28.7466     56.31     57.80    -20.32     24.26
   28.7567     57.02     57.67    -19.48     24.26
   28.7669     55.77     57.54    -20.60     24.26
   28.7771     56.50     57.40    -19.73     24.26
   28.7872     56.12     57.26    -19.97     24.26
   28.7974     55.38     57.12    -20.57     24.26
   28.8076     55.81     56.97    -19.99     24.26
   28.8177     56.48     56.82    -19.17     24.26
   28.8279     54.49     56.67    -21.01     24.26
   28.8381     55.16     56.51    -20.18     24.27
   28.8482     54.21     56.35    -20.97     24.27
   28.8584     53.77     56.19    -21.25     24.27
   28.8685     53.64     56.03    -21.22     24.27
   28.8787     54.70     55.87    -20.00     24.27
   28.8889     54.25     55.70    -20.28     24.27
   28.8990     53.48     55.53    -20.88     24.27
   28.9092     53.55     55.36    -20.64     24.27
   28.9194     53.27     55.18    -20.74     24.27
   28.9295     53.15     55.01    -20.69     24.27
   28.9397     53.52     54.83    -20.14     24.27
   28.9499     52.44     54.65    -21.04     24.27
   28.9600     51.96     54.47    -21.34     24.27
   28.9702     52.37     54.29    -20.75     24.27
   28.9804     51.34     54.11    -21.60     24.27
   28.9905     52.40     53.92    -20.35     24.28
   29.0007     52.35     53.74    -20.22     24.28
   29.0108     51.62     53.56    -20.77     24.28
   29.0210     51.50     53.37    -20.70     24.28
   29.0312     51.24     53.18    -20.77     24.28
   29.0413     50.45     52.99    -21.37     24.28
   29.0515     50.91     52.80    -20.72     24.28
   29.0617     50.83     52.62    -20.62     24.28
   29.0718     50.17     52.43    -21.09     24.28
   29.0820     50.10     52.24    -20.97     24.28
   29.0922     48.89     52.05    -21.99     24.28
   29.1023     50.16     51.86    -20.53     24.28
   29.1125     50.57     51.67    -19.93     24.28
   29.1227     49.01     51.48    -21.30     24.28
   29.1328     49.40     51.29    -20.72     24.29
   29.1430     49.73     51.10    -20.20     24.29
   29.1531     48.40     50.91    -21.34     24.29
   29.1633     47.33     50.72    -22.22     24.29
   29.1735     49.66     50.53    -19.70     24.29
   29.1836     49.17     50.35    -20.01     24.29
   29.1938     48.80     50.16    -20.19     24.29
   29.2040     48.65     49.97    -20.15     24.29
   29.2141     48.20     49.78    -20.41     24.29
   29.2243     48.32     49.60    -20.11     24.29
   29.2345     47.85     49.41    -20.39     24.29
   29.2446     47.55     49.23    -20.51     24.29
   29.2548     48.10     49.05    -19.78     24.29
   29.2650     48.46     48.86    -19.23     24.29
   29.2751     47.88     48.68    -19.63     24.29
   29.2853     47.19     48.50    -20.14     24.30
   29.2955     48.17     48.32    -18.98     24.30
   29.3056     46.77     48.14    -20.20     24.30
   29.3158     46.48     47.96    -20.31     24.30
   29.3259     45.91     47.79    -20.71     24.30
   29.3361     46.55     47.61    -19.89     24.30
   29.3463     46.56     47.44    -19.71     24.30
   29.3564     46.20     47.27    -19.90     24.30
   29.3666     46.60     47.10    -19.33     24.30
   29.3768     45.80     46.93    -19.96     24.30
   29.3869     46.57     46.76    -19.02     24.30
   29.3971     46.96     46.59    -18.46     24.30
   29.4073     46.66     46.42    -18.59     24.30
   29.4174     45.73     46.26    -19.36     24.30
   29.4276     47.16     46.10    -17.77     24.31
   29.4378     45.65     45.93    -19.11     24.31
   29.4479     44.73     45.77    -19.87     24.31
   29.4581     46.48     45.61    -17.96     24.31
   29.4682     44.65     45.46    -19.64     24.31
   29.4784     44.13     45.30    -20.00     24.31
   29.4886     44.62     45.15    -19.36     24.31
   29.4987     44.68     44.99    -19.14     24.31
   29.5089     45.43     44.84    -18.24     24.31
   29.5191     44.37     44.69    -19.15     24.31
   29.5292     44.84     44.55    -18.54     24.31
   29.5394     44.52     44.40    -18.71     24.31
   29.5496     44.69     44.25    -18.39     24.31
   29.5597     44.76     44.11    -18.18     24.31
   29.5699     44.36     43.97    -18.44     24.32
   29.5801     43.24     43.83    -19.42     24.32
   29.5902     43.71     43.69    -18.81     24.32
   29.6004     44.16     43.55    -18.22     24.32
   29.6106     44.22     43.41    -18.02     24.32
   29.6207     43.13     43.28    -18.98     24.32
   29.6309     44.80     43.14    -17.17     24.32
   29.6410     44.96     43.01    -16.88     24.32
   29.6512     44.30     42.88    -17.41     24.32
   29.6614     43.80     42.75    -17.78     24.32
   29.6715     43.56     42.63    -17.90     24.32
   29.6817     44.05     42.50    -17.28     24.32
   29.6919     44.39     42.38    -16.82     24.32
   29.7020     43.58     42.25    -17.50     24.32
   29.7122     42.86     42.13    -18.10     24.32
   29.7224     42.67     42.01    -18.17     24.33
   29.7325     44.68     41.89    -16.04     24.33
   29.7427     43.24     41.78    -17.37     24.33
   29.7529     42.94     41.66    -17.55     24.33
   29.7630     43.18     41.54    -17.19     24.33
   29.7732     43.14     41.43    -17.12     24.33
   29.7833     42.95     41.32    -17.20     24.33
   29.7935     43.44     41.21    -16.60     24.33
   29.8037     42.66     41.10    -17.27     24.33
   29.8138     43.90     40.99    -15.92     24.33
   29.8240     42.76     40.88    -16.95     24.33
   29.8342     42.73     40.78    -16.88     24.33
   29.8443     42.70     40.67    -16.80     24.33
   29.8545     43.02     40.57    -16.38     24.33
   29.8647     42.84     40.46    -16.45     24.34
   29.8748     43.65     40.36    -15.54     24.34
   29.8850     42.65     40.26    -16.44     24.34
   29.8952     41.59     40.16    -17.40     24.34
   29.9053     42.67     40.07    -16.23     24.34
   29.9155     41.81     39.97    -16.99     24.34
   29.9257     41.45     39.87    -17.25     24.34
   29.9358     42.60     39.78    -16.01     24.34
   29.9460     42.13     39.68    -16.38     24.34
   29.9561     42.13     39.59    -16.29     24.34
   29.9663     41.76     39.50    -16.57     24.34
   29.9765     41.45     39.41    -16.79     24.34
   29.9866     41.96     39.32    -16.19     24.34
   29.9968     41.60     39.23    -16.46     24.34
   30.0070     41.46     39.14    -16.51     24.34
   30.0171     40.73     39.05    -17.15     24.35
   30.0273     41.56     38.96    -16.23     24.35
   30.0375     41.75     38.88    -15.96     24.35
   30.0476     41.93     38.79    -15.69     24.35
   30.0578     41.19     38.71    -16.35     24.35
   30.0680     40.28     38.62    -17.17     24.35
   30.0781     40.74     38.54    -16.63     24.35
   30.0883     40.58     38.46    -16.71     24.35
   30.0984     40.91     38.38    -16.30     24.35
   30.1086     40.05     38.30    -17.08     24.35
   30.1188     40.80     38.22    -16.25     24.35
   30.1289     40.68     38.14    -16.29     24.35
   30.1391     40.99     38.06    -15.90     24.35
   30.1493     39.96     37.98    -16.85     24.35
   30.1594     39.68     37.90    -17.05     24.36
   30.1696     40.23     37.83    -16.43     24.36
   30.1798     39.91     37.75    -16.67     24.36
   30.1899     40.28     37.68    -16.23     24.36
   30.2001     40.13     37.60    -16.30     24.36
   30.2103     40.72     37.53    -15.64     24.36
   30.2204     39.89     37.46    -16.40     24.36
   30.2306     40.64     37.38    -15.57     24.36
   30.2408     39.86     37.31    -16.28     24.36
   30.2509     39.07     37.24    -17.00     24.36
   30.2611     38.71     37.17    -17.29     24.36
   30.2712     39.59     37.10    -16.34     24.36
   30.2814     40.65     37.03    -15.21     24.36
   30.2916     38.58     36.96    -17.21     24.36
   30.3017     38.12     36.89    -17.60     24.36
   30.3119     39.10     36.82    -16.55     24.37
   30.3221     38.93     36.76    -16.66     24.37
   30.3322     38.82     36.69    -16.70     24.37
   30.3424     38.73     36.62    -16.72     24.37
   30.3526     38.71     36.56    -16.68     24.37
   30.3627     38.54     36.49    -16.78     24.37
   30.3729     38.32     36.43    -16.94     24.37
   30.3831     38.34     36.36    -16.85     24.37
   30.3932     38.60     36.30    -16.53     24.37
   30.4034     38.50     36.24    -16.57     24.37
   30.4135     38.18     36.18    -16.83     24.37
   30.4237     37.33     36.11    -17.61     24.37
   30.4339     38.00     36.05    -16.88     24.37
   30.4440     37.71     35.99    -17.11     24.37
   30.4542     37.87     35.93    -16.89     24.38
   30.4644     37.66     35.87    -17.04     24.38
   30.4745     37.67     35.81    -16.97     24.38
   30.4847     37.21     35.75    -17.37     24.38
   30.4949     37.91     35.69    -16.61     24.38
   30.5050     36.40     35.63    -18.06     24.38
   30.5152     38.08     35.58    -16.33     24.38
   30.5254     37.68     35.52    -16.67     24.38
   30.5355     36.51     35.46    -17.78     24.38
   30.5457     36.80     35.41    -17.44     24.38
   30.5559     38.02     35.35    -16.16     24.38
   30.5660     37.25     35.29    -16.87     24.38
   30.5762     37.50     35.24    -16.57     24.38
   30.5863     37.04     35.18    -16.97     24.38
   30.5965     35.73     35.13    -18.23     24.38
   30.6067     36.79     35.08    -17.12     24.39
   30.6168     36.57     35.02    -17.28     24.39
   30.6270     36.29     34.97    -17.51     24.39
   30.6372     36.35     34.92    -17.40     24.39
   30.6473     37.05     34.86    -16.64     24.39
   30.6575     36.71     34.81    -16.93     24.39
   30.6677     36.14     34.76    -17.45     24.39
   30.6778     36.99     34.71    -16.55     24.39
   30.6880     36.75     34.66    -16.74     24.39
   30.6982     36.49     34.61    -16.95     24.39
   30.7083     36.56     34.56    -16.83     24.39
   30.7185     35.79     34.51    -17.55     24.39
   30.7286     35.85     34.46    -17.44     24.39
   30.7388     36.53     34.41    -16.71     24.39
   30.7490     35.72     34.37    -17.48     24.40
   30.7591     36.21     34.32    -16.94     24.40
   30.7693     35.89     34.27    -17.21     24.40
   30.7795     36.01     34.22    -17.04     24.40
   30.7896     35.76     34.18    -17.25     24.40
   30.7998     35.49     34.13    -17.47     24.40
   30.8100     36.27     34.09    -16.65     24.40
   30.8201     35.18     34.04    -17.69     24.40
   30.8303     35.35     34.00    -17.48     24.40
   30.8405     35.89     33.95    -16.89     24.40
   30.8506     34.87     33.91    -17.87     24.40
   30.8608     35.16     33.86    -17.53     24.40
   30.8710     36.27     33.82    -16.38     24.40
   30.8811     35.45     33.78    -17.16     24.40
   30.8913     35.77     33.73    -16.79     24.40
   30.9014     35.13     33.69    -17.39     24.41
   30.9116     34.90     33.65    -17.58     24.41
   30.9218     35.69     33.61    -16.75     24.41
   30.9319     34.60     33.57    -17.80     24.41
   30.9421     34.90     33.53    -17.46     24.41
   30.9523     34.87     33.49    -17.45     24.41
   30.9624     34.84     33.45    -17.44     24.41
   30.9726     34.26     33.41    -17.98     24.41
   30.9828     34.53     33.37    -17.67     24.41
   30.9929     34.71     33.33    -17.45     24.41
   31.0031     34.79     33.29    -17.33     24.41
   31.0133     35.65     33.25    -16.43     24.41
   31.0234     34.79     33.22    -17.26     24.41
   31.0336     34.27     33.18    -17.74     24.41
   31.0437     35.32     33.14    -16.65     24.42
   31.0539     34.53     33.10    -17.40     24.42
   31.0641     34.49     33.07    -17.41     24.42
   31.0742     35.40     33.03    -16.46     24.42
   31.0844     34.97     33.00    -16.86     24.42
   31.0946     34.76     32.96    -17.03     24.42
   31.1047     35.28     32.93    -16.48     24.42
   31.1149     33.79     32.89    -17.93     24.42
   31.1251     34.15     32.86    -17.54     24.42
   31.1352     33.72     32.82    -17.93     24.42
   31.1454     34.04     32.79    -17.58     24.42
   31.1556     34.38     32.76    -17.21     24.42
   31.1657     34.21     32.72    -17.34     24.42
   31.1759     33.87     32.69    -17.65     24.42
   31.1860     33.98     32.66    -17.51     24.42
   31.1962     35.12     32.63    -16.34     24.43
   31.2064     34.85     32.60    -16.58     24.43
   31.2165     34.68     32.57    -16.72     24.43
   31.2267     33.96     32.53    -17.40     24.43
   31.2369     34.04     32.50    -17.29     24.43
   31.2470     34.60     32.47    -16.70     24.43
   31.2572     35.04     32.45    -16.24     24.43
   31.2674     33.05     32.42    -18.20     24.43
   31.2775     34.08     32.39    -17.14     24.43
   31.2877     34.55     32.36    -16.64     24.43
   31.2979     34.10     32.33    -17.06     24.43
   31.3080     33.27     32.30    -17.86     24.43
   31.3182     33.92     32.27    -17.18     24.43
   31.3284     33.26     32.25    -17.82     24.43
   31.3385     33.96     32.22    -17.09     24.44
   31.3487     33.40     32.19    -17.62     24.44
   31.3588     33.57     32.17    -17.43     24.44
   31.3690     33.22     32.14    -17.75     24.44
   31.3792     33.29     32.12    -17.66     24.44
   31.3893     33.15     32.09    -17.77     24.44
   31.3995     33.18     32.07    -17.72     24.44
   31.4097     33.23     32.04    -17.64     24.44
   31.4198     33.23     32.02    -17.62     24.44
   31.4300     33.65     31.99    -17.17     24.44
   31.4402     32.95     31.97    -17.85     24.44
   31.4503     32.68     31.95    -18.10     24.44
   31.4605     33.38     31.92    -17.37     24.44
   31.4707     32.63     31.90    -18.10     24.44
   31.4808     33.62     31.88    -17.09     24.45
   31.4910     33.12     31.86    -17.57     24.45
   31.5011     34.10     31.83    -16.56     24.45
   31.5113     33.60     31.81    -17.04     24.45
   31.5215     33.09     31.79    -17.53     24.45
   31.5316     33.72     31.77    -16.88     24.45
   31.5418     33.35     31.75    -17.23     24.45
   31.5520     32.85     31.73    -17.71     24.45
   31.5621     32.95     31.71    -17.59     24.45
   31.5723     32.82     31.69    -17.70     24.45
   31.5825     32.28     31.67    -18.22     24.45
   31.5926     33.27     31.65    -17.21     24.45
   31.6028     33.05     31.64    -17.42     24.45
   31.6130     33.62     31.62    -16.83     24.45
   31.6231     32.78     31.60    -17.65     24.45
   31.6333     33.78     31.58    -16.63     24.46
   31.6435     33.49     31.57    -16.91     24.46
   31.6536     33.36     31.55    -17.02     24.46
   31.6638     33.20     31.53    -17.16     24.46
   31.6739     33.19     31.52    -17.16     24.46
   31.6841     32.68     31.50    -17.65     24.46
   31.6943     33.06     31.48    -17.25     24.46
   31.7044     32.82     31.47    -17.48     24.46
   31.7146     33.33     31.45    -16.95     24.46
   31.7248     32.32     31.44    -17.95     24.46
   31.7349     33.02     31.43    -17.24     24.46
   31.7451     32.88     31.41    -17.36     24.46
   31.7553     33.24     31.40    -16.99     24.46
   31.7654     32.61     31.38    -17.60     24.46
   31.7756     32.68     31.37    -17.52     24.47
   31.7858     32.49     31.36    -17.70     24.47
   31.7959     32.28     31.35    -17.90     24.47
   31.8061     32.34     31.33    -17.82     24.47
   31.8162     32.63     31.32    -17.52     24.47
   31.8264     33.05     31.31    -17.09     24.47
   31.8366     33.39     31.30    -16.74     24.47
   31.8467     32.99     31.29    -17.13     24.47
   31.8569     32.41     31.28    -17.70     24.47
   31.8671     32.56     31.27    -17.54     24.47
   31.8772     32.53     31.26    -17.56     24.47
   31.8874     32.76     31.25    -17.32     24.47
   31.8976     32.23     31.24    -17.84     24.47
   31.9077     33.11     31.23    -16.95     24.47
   31.9179     32.49     31.22    -17.56     24.47
   31.9281     33.23     31.21    -16.81     24.48
   31.9382     32.57     31.20    -17.46     24.48
   31.9484     32.29     31.20    -17.74     24.48
   31.9586     33.02     31.19    -17.00     24.48
   31.9687     32.28     31.18    -17.73     24.48
   31.9789     32.71     31.17    -17.29     24.48
   31.9890     32.69     31.17    -17.31     24.48
   31.9992     32.51     31.16    -17.48     24.48
   32.0094     32.40     31.15    -17.58     24.48
   32.0195     32.98     31.15    -17.00     24.48
   32.0297     32.27     31.14    -17.70     24.48
   32.0399     32.02     31.14    -17.95     24.48
   32.0500     32.61     31.13    -17.35     24.48
   32.0602     31.93     31.13    -18.03     24.48
   32.0704     32.01     31.12    -17.94     24.49
   32.0805     32.79     31.12    -17.16     24.49
   32.0907     32.10     31.12    -17.85     24.49
   32.1009     32.45     31.11    -17.49     24.49
   32.1110     32.31     31.11    -17.63     24.49
   32.1212     32.50     31.11    -17.44     24.49
   32.1313     33.00     31.10    -16.93     24.49
   32.1415     32.05     31.10    -17.88     24.49
   32.1517     32.01     31.10    -17.92     24.49
   32.1618     31.97     31.10    -17.96     24.49
   32.1720     32.16     31.09    -17.76     24.49
   32.1822     32.50     31.09    -17.42     24.49
   32.1923     32.43     31.09    -17.49     24.49
   32.2025     32.36     31.09    -17.56     24.49
   32.2127     32.08     31.09    -17.84     24.49
   32.2228     32.51     31.09    -17.41     24.50
   32.2330     32.60     31.09    -17.32     24.50
   32.2432     32.21     31.09    -17.71     24.50
   32.2533     31.71     31.09    -18.21     24.50
   32.2635     32.03     31.09    -17.89     24.50
   32.2737     32.40     31.09    -17.52     24.50
   32.2838     32.86     31.09    -17.06     24.50
   32.2940     32.61     31.10    -17.32     24.50
   32.3041     32.27     31.10    -17.66     24.50
   32.3143     31.07     31.10    -18.86     24.50
   32.3245     32.89     31.10    -17.04     24.50
   32.3346     32.57     31.10    -17.36     24.50
   32.3448     33.10     31.11    -16.84     24.50
   32.3550     32.73     31.11    -17.21     24.50
   32.3651     31.87     31.11    -18.07     24.51
   32.3753     31.76     31.12    -18.19     24.51
   32.3855     32.87     31.12    -17.08     24.51
   32.3956     32.09     31.12    -17.86     24.51
   32.4058     33.08     31.13    -16.88     24.51
   32.4160     32.34     31.13    -17.62     24.51
   32.4261     32.29     31.13    -17.67     24.51
   32.4363     33.32     31.14    -16.65     24.51
   32.4464     32.05     31.14    -17.92     24.51
   32.4566     31.39     31.15    -18.59     24.51
   32.4668     32.02     31.15    -17.96     24.51
   32.4769     31.51     31.16    -18.48     24.51
   32.4871     31.95     31.16    -18.04     24.51
   32.4973     31.41     31.17    -18.59     24.51
   32.5074     31.76     31.17    -18.24     24.51
   32.5176     31.76     31.18    -18.25     24.52
   32.5278     32.29     31.19    -17.73     24.52
   32.5379     32.18     31.19    -17.84     24.52
   32.5481     32.15     31.20    -17.88     24.52
   32.5583     31.72     31.20    -18.31     24.52
   32.5684     31.70     31.21    -18.34     24.52
   32.5786     31.51     31.22    -18.54     24.52
   32.5888     32.37     31.22    -17.68     24.52
   32.5989     31.81     31.23    -18.25     24.52
   32.6091     31.95     31.24    -18.12     24.52
   32.6192     31.93     31.24    -18.14     24.52
   32.6294     31.80     31.25    -18.28     24.52
   32.6396     31.95     31.26    -18.14     24.52
   32.6497     32.22     31.26    -17.87     24.52
   32.6599     31.82     31.27    -18.28     24.53
   32.6701     31.84     31.28    -18.27     24.53
   32.6802     32.44     31.28    -17.67     24.53
   32.6904     32.16     31.29    -17.96     24.53
   32.7006     31.54     31.30    -18.59     24.53
   32.7107     32.07     31.30    -18.06     24.53
   32.7209     31.03     31.31    -19.11     24.53
   32.7311     31.28     31.32    -18.87     24.53
   32.7412     31.79     31.32    -18.36     24.53
   32.7514     32.05     31.33    -18.11     24.53
   32.7615     31.10     31.34    -19.07     24.53
   32.7717     32.20     31.34    -17.97     24.53
   32.7819     31.54     31.35    -18.64     24.53
   32.7920     31.67     31.36    -18.52     24.53
   32.8022     32.12     31.36    -18.07     24.53
   32.8124     31.85     31.37    -18.35     24.54
   32.8225     31.93     31.38    -18.28     24.54
   32.8327     31.54     31.38    -18.67     24.54
   32.8429     31.66     31.39    -18.56     24.54
   32.8530     31.48     31.39    -18.74     24.54
   32.8632     31.64     31.40    -18.59     24.54
   32.8734     31.77     31.41    -18.47     24.54
   32.8835     32.84     31.41    -17.40     24.54
   32.8937     31.64     31.42    -18.61     24.54
   32.9039     32.10     31.42    -18.15     24.54
   32.9140     31.34     31.43    -18.92     24.54
   32.9242     32.24     31.43    -18.02     24.54
   32.9343     32.16     31.43    -18.10     24.54
   32.9445     31.34     31.44    -18.93     24.54
   32.9547     31.86     31.44    -18.41     24.55
   32.9648     32.08     31.45    -18.20     24.55
   32.9750     30.91     31.45    -19.37     24.55
   32.9852     32.76     31.45    -17.52     24.55
   32.9953     32.30     31.46    -17.99     24.55
   33.0055     32.48     31.46    -17.81     24.55
   33.0157     32.23     31.46    -18.06     24.55
   33.0258     31.65     31.46    -18.64     24.55
   33.0360     32.38     31.46    -17.91     24.55
   33.0462     31.94     31.46    -18.35     24.55
   33.0563     32.46     31.46    -17.83     24.55
   33.0665     32.98     31.46    -17.31     24.55
   33.0766     32.37     31.46    -17.92     24.55
   33.0868     31.91     31.46    -18.38     24.55
   33.0970     32.51     31.46    -17.78     24.55
   33.1071     33.12     31.46    -17.17     24.56
   33.1173     32.30     31.46    -17.99     24.56
   33.1275     32.48     31.46    -17.81     24.56
   33.1376     32.57     31.46    -17.72     24.56
   33.1478     31.43     31.45    -18.85     24.56
   33.1580     32.23     31.45    -18.05     24.56
   33.1681     32.20     31.44    -18.07     24.56
   33.1783     31.49     31.44    -18.78     24.56
   33.1885     31.76     31.44    -18.51     24.56
   33.1986     32.22     31.43    -18.04     24.56
   33.2088     32.14     31.42    -18.11     24.56
   33.2189     32.08     31.42    -18.17     24.56
   33.2291     31.98     31.41    -18.26     24.56
   33.2393     32.15     31.40    -18.08     24.56
   33.2494     31.76     31.40    -18.47     24.57
   33.2596     32.01     31.39    -18.21     24.57
   33.2698     32.44     31.38    -17.77     24.57
   33.2799     31.54     31.37    -18.66     24.57
   33.2901     32.85     31.36    -17.34     24.57
   33.3003     32.74     31.35    -17.44     24.57
   33.3104     33.19     31.34    -16.98     24.57
   33.3206     31.96     31.33    -18.20     24.57
   33.3308     32.22     31.32    -17.93     24.57
   33.3409     31.67     31.30    -18.46     24.57
   33.3511     32.62     31.29    -17.50     24.57
   33.3613     31.94     31.28    -18.17     24.57
   33.3714     31.66     31.27    -18.44     24.57
   33.3816     32.47     31.25    -17.61     24.57
   33.3917     32.34     31.24    -17.73     24.58
   33.4019     32.41     31.22    -17.64     24.58
   33.4121     32.05     31.21    -17.99     24.58
   33.4222     30.72     31.19    -19.30     24.58
   33.4324     31.88     31.17    -18.12     24.58
   33.4426     32.30     31.16    -17.69     24.58
   33.4527     31.71     31.14    -18.26     24.58
   33.4629     31.57     31.12    -18.38     24.58
   33.4731     31.44     31.10    -18.49     24.58
   33.4832     31.79     31.09    -18.13     24.58
   33.4934     31.27     31.07    -18.63     24.58
   33.5036     31.52     31.05    -18.36     24.58
   33.5137     31.42     31.03    -18.44     24.58
   33.5239     31.59     31.01    -18.25     24.58
   33.5340     32.10     30.99    -17.72     24.58
   33.5442     31.30     30.97    -18.50     24.59
   33.5544     31.15     30.95    -18.63     24.59
   33.5645     31.46     30.93    -18.30     24.59
   33.5747     31.99     30.90    -17.74     24.59
   33.5849     31.01     30.88    -18.70     24.59
   33.5950     31.42     30.86    -18.27     24.59
   33.6052     30.24     30.84    -19.43     24.59
   33.6154     30.57     30.81    -19.07     24.59
   33.6255     31.57     30.79    -18.05     24.59
   33.6357     30.84     30.77    -18.76     24.59
   33.6459     30.95     30.74    -18.62     24.59
   33.6560     31.20     30.72    -18.35     24.59
   33.6662     31.09     30.70    -18.44     24.59
   33.6764     31.09     30.67    -18.41     24.59
   33.6865     30.08     30.65    -19.40     24.60
   33.6967     30.89     30.62    -18.56     24.60
   33.7068     30.02     30.60    -19.41     24.60
   33.7170     30.33     30.57    -19.07     24.60
   33.7272     29.96     30.55    -19.42     24.60
   33.7373     30.01     30.52    -19.34     24.60
   33.7475     30.10     30.50    -19.23     24.60
   33.7577     30.82     30.47    -18.48     24.60
   33.7678     28.96     30.45    -20.32     24.60
   33.7780     29.86     30.42    -19.39     24.60
   33.7882     29.95     30.40    -19.28     24.60
   33.7983     29.18     30.37    -20.02     24.60
   33.8085     29.36     30.35    -19.82     24.60
   33.8187     28.91     30.32    -20.24     24.60
   33.8288     28.98     30.29    -20.14     24.60
   33.8390     29.26     30.27    -19.84     24.61
   33.8491     29.66     30.24    -19.41     24.61
   33.8593     27.80     30.21    -21.24     24.61
   33.8695     28.73     30.19    -20.29     24.61
   33.8796     28.43     30.16    -20.56     24.61
   33.8898     28.93     30.14    -20.04     24.61
   33.9000     28.34     30.11    -20.60     24.61
   33.9101     28.71     30.08    -20.20     24.61
   33.9203     28.59     30.06    -20.30     24.61
   33.9305     29.20     30.03    -19.66     24.61
   33.9406     28.41     30.01    -20.43     24.61
   33.9508     27.55     29.98    -21.26     24.61
   33.9610     28.48     29.95    -20.30     24.61
   33.9711     29.13     29.93    -19.63     24.61
   33.9813     28.03     29.90    -20.70     24.62
   33.9915     28.62     29.88    -20.09     24.62
   34.0016     28.18     29.85    -20.50     24.62
   34.0118     28.97     29.82    -19.68     24.62
   34.0219     28.02     29.80    -20.61     24.62
   34.0321     27.15     29.77    -21.45     24.62
   34.0423     27.84     29.75    -20.74     24.62
   34.0524     27.29     29.72    -21.26     24.62
   34.0626     27.91     29.70    -20.62     24.62
   34.0728     27.54     29.67    -20.96     24.62
   34.0829     27.65     29.65    -20.83     24.62
   34.0931     27.82     29.62    -20.63     24.62
   34.1033     27.73     29.60    -20.70     24.62
   34.1134     27.35     29.57    -21.05     24.62
   34.1236     27.66     29.55    -20.72     24.62
   34.1338     27.37     29.52    -20.98     24.63
   34.1439     27.16     29.50    -21.17     24.63
   34.1541     27.60     29.47    -20.70     24.63
   34.1642     27.62     29.45    -20.66     24.63
   34.1744     27.51     29.43    -20.75     24.63
   34.1846     27.37     29.40    -20.86     24.63
   34.1947     27.33     29.38    -20.88     24.63
   34.2049     27.03     29.36    -21.16     24.63
   34.2151     27.26     29.33    -20.90     24.63
   34.2252     27.07     29.31    -21.07     24.63
   34.2354     26.51     29.29    -21.61     24.63
   34.2456     26.78     29.26    -21.31     24.63
   34.2557     27.12     29.24    -20.95     24.63
   34.2659     26.89     29.22    -21.16     24.63
   34.2761     27.24     29.20    -20.79     24.64
   34.2862     26.78     29.17    -21.22     24.64
   34.2964     27.01     29.15    -20.97     24.64
   34.3066     26.82     29.13    -21.14     24.64
   34.3167     27.16     29.11    -20.78     24.64
   34.3269     26.04     29.09    -21.88     24.64
   34.3370     27.12     29.07    -20.78     24.64
   34.3472     26.99     29.05    -20.89     24.64
   34.3574     27.08     29.03    -20.78     24.64
   34.3675     27.51     29.01    -20.33     24.64
   34.3777     27.90     28.99    -19.92     24.64
   34.3879     26.98     28.97    -20.82     24.64
   34.3980     26.51     28.95    -21.27     24.64
   34.4082     27.03     28.93    -20.73     24.64
   34.4184     27.21     28.91    -20.53     24.64
   34.4285     25.80     28.89    -21.92     24.65
   34.4387     26.06     28.87    -21.64     24.65
   34.4489     26.24     28.85    -21.44     24.65
   34.4590     26.24     28.83    -21.42     24.65
   34.4692     26.55     28.81    -21.09     24.65
   34.4793     26.73     28.79    -20.89     24.65
   34.4895     27.40     28.77    -20.20     24.65
   34.4997     27.38     28.76    -20.21     24.65
   34.5098     27.46     28.74    -20.11     24.65
   34.5200     26.50     28.72    -21.05     24.65
   34.5302     26.26     28.70    -21.27     24.65
   34.5403     27.15     28.69    -20.37     24.65
   34.5505     25.92     28.67    -21.58     24.65
   34.5607     25.90     28.65    -21.58     24.65
   34.5708     26.93     28.64    -20.54     24.66
   34.5810     26.66     28.62    -20.79     24.66
   34.5912     27.12     28.60    -20.31     24.66
   34.6013     26.40     28.59    -21.02     24.66
   34.6115     26.35     28.57    -21.05     24.66
   34.6217     26.27     28.56    -21.12     24.66
   34.6318     26.03     28.54    -21.34     24.66
   34.6420     25.78     28.53    -21.58     24.66
   34.6521     26.96     28.51    -20.38     24.66
   34.6623     26.79     28.50    -20.54     24.66
   34.6725     26.34     28.48    -20.97     24.66
   34.6826     26.71     28.47    -20.59     24.66
   34.6928     26.49     28.45    -20.79     24.66
   34.7030     25.88     28.44    -21.39     24.66
   34.7131     25.91     28.43    -21.35     24.66
   34.7233     25.73     28.41    -21.51     24.67
   34.7335     25.74     28.40    -21.49     24.67
   34.7436     26.68     28.38    -20.53     24.67
   34.7538     25.23     28.37    -21.97     24.67
   34.7640     26.03     28.36    -21.16     24.67
   34.7741     25.96     28.35    -21.22     24.67
   34.7843     25.75     28.33    -21.41     24.67
   34.7944     25.34     28.32    -21.81     24.67
   34.8046     26.58     28.31    -20.56     24.67
   34.8148     26.02     28.30    -21.11     24.67
   34.8249     26.11     28.28    -21.00     24.67
   34.8351     25.48     28.27    -21.62     24.67
   34.8453     26.21     28.26    -20.88     24.67
   34.8554     26.33     28.25    -20.75     24.67
   34.8656     26.41     28.24    -20.66     24.68
   34.8758     25.41     28.23    -21.65     24.68
   34.8859     25.81     28.21    -21.23     24.68
   34.8961     25.98     28.20    -21.05     24.68
   34.9063     26.12     28.19    -20.90     24.68
   34.9164     25.67     28.18    -21.34     24.68
   34.9266     25.78     28.17    -21.22     24.68
   34.9367     26.04     28.16    -20.95     24.68
   34.9469     25.87     28.15    -21.11     24.68
   34.9571     26.04     28.14    -20.93     24.68
   34.9672     25.13     28.13    -21.83     24.68
   34.9774     26.09     28.12    -20.86     24.68
   34.9876     25.34     28.11    -21.60     24.68
   34.9977     25.30     28.10    -21.63     24.68
   35.0079     25.77     28.09    -21.15     24.68
   35.0181     25.29     28.08    -21.62     24.69
   35.0282     25.26     28.07    -21.64     24.69
   35.0384     25.71     28.06    -21.18     24.69
   35.0486     25.74     28.05    -21.14     24.69
   35.0587     25.52     28.05    -21.36     24.69
   35.0689     25.15     28.04    -21.72     24.69
   35.0791     25.17     28.03    -21.69     24.69
   35.0892     25.96     28.02    -20.89     24.69
   35.0994     25.31     28.01    -21.53     24.69
   35.1095     26.10     28.00    -20.73     24.69
   35.1197     25.89     27.99    -20.93     24.69
   35.1299     26.22     27.99    -20.60     24.69
   35.1400     25.40     27.98    -21.41     24.69
   35.1502     25.77     27.97    -21.03     24.69
   35.1604     25.99     27.96    -20.80     24.70
   35.1705     26.12     27.96    -20.67     24.70
   35.1807     25.55     27.95    -21.23     24.70
   35.1909     25.43     27.94    -21.34     24.70
   35.2010     25.64     27.93    -21.12     24.70
   35.2112     25.52     27.93    -21.24     24.70
   35.2214     25.34     27.92    -21.41     24.70
   35.2315     25.78     27.91    -20.96     24.70
   35.2417     25.26     27.90    -21.47     24.70
   35.2518     25.29     27.90    -21.44     24.70
   35.2620     25.77     27.89    -20.95     24.70
   35.2722     25.65     27.88    -21.06     24.70
   35.2823     25.11     27.88    -21.60     24.70
   35.2925     26.29     27.87    -20.41     24.70
   35.3027     25.40     27.86    -21.29     24.71
   35.3128     25.30     27.86    -21.39     24.71
   35.3230     25.25     27.85    -21.43     24.71
   35.3332     26.05     27.84    -20.62     24.71
   35.3433     25.09     27.84    -21.58     24.71
   35.3535     25.59     27.83    -21.07     24.71
   35.3637     24.63     27.82    -22.02     24.71
   35.3738     25.20     27.82    -21.45     24.71
   35.3840     25.60     27.81    -21.04     24.71
   35.3942     26.38     27.81    -20.26     24.71
   35.4043     24.38     27.80    -22.25     24.71
   35.4145     25.04     27.79    -21.58     24.71
   35.4246     25.66     27.79    -20.96     24.71
   35.4348     25.85     27.78    -20.76     24.71
   35.4450     25.29     27.78    -21.32     24.71
   35.4551     24.90     27.77    -21.70     24.72
   35.4653     25.24     27.77    -21.36     24.72
   35.4755     25.59     27.76    -21.00     24.72
   35.4856     24.57     27.75    -22.01     24.72
   35.4958     25.05     27.75    -21.53     24.72
   35.5060     25.24     27.74    -21.33     24.72
   35.5161     24.74     27.74    -21.83     24.72
   35.5263     24.95     27.73    -21.61     24.72
   35.5365     24.67     27.73    -21.89     24.72
   35.5466     24.98     27.72    -21.57     24.72
   35.5568     25.57     27.72    -20.98     24.72
   35.5669     24.65     27.71    -21.89     24.72
   35.5771     23.84     27.71    -22.70     24.72
   35.5873     24.60     27.70    -21.93     24.72
   35.5974     25.13     27.70    -21.40     24.73
   35.6076     25.12     27.69    -21.40     24.73
   35.6178     25.13     27.69    -21.39     24.73
   35.6279     25.29     27.68    -21.22     24.73
   35.6381     25.61     27.68    -20.90     24.73
   35.6483     24.72     27.67    -21.78     24.73
   35.6584     25.09     27.67    -21.41     24.73
   35.6686     24.93     27.66    -21.56     24.73
   35.6788     25.12     27.66    -21.37     24.73
   35.6889     24.80     27.65    -21.68     24.73
   35.6991     24.70     27.65    -21.78     24.73
   35.7093     25.49     27.64    -20.98     24.73
   35.7194     24.91     27.64    -21.56     24.73
   35.7296     25.16     27.64    -21.31     24.73
   35.7397     25.03     27.63    -21.43     24.73
   35.7499     25.97     27.63    -20.49     24.74
   35.7601     24.32     27.62    -22.13     24.74
   35.7702     24.65     27.62    -21.80     24.74
   35.7804     24.84     27.61    -21.60     24.74
   35.7906     24.56     27.61    -21.88     24.74
   35.8007     24.87     27.60    -21.56     24.74
   35.8109     25.61     27.60    -20.82     24.74
   35.8211     24.90     27.60    -21.53     24.74
   35.8312     24.06     27.59    -22.36     24.74
   35.8414     25.21     27.59    -21.21     24.74
   35.8516     24.06     27.58    -22.35     24.74
   35.8617     24.05     27.58    -22.36     24.74
   35.8719     24.74     27.57    -21.66     24.74
   35.8820     25.20     27.57    -21.20     24.74
   35.8922     24.38     27.57    -22.02     24.75
   35.9024     25.14     27.56    -21.25     24.75
   35.9125     24.53     27.56    -21.86     24.75
   35.9227     24.47     27.55    -21.91     24.75
   35.9329     25.09     27.55    -21.29     24.75
   35.9430     25.25     27.55    -21.13     24.75
   35.9532     25.85     27.54    -20.52     24.75
   35.9634     25.09     27.54    -21.28     24.75
   35.9735     24.74     27.53    -21.62     24.75
   35.9837     24.95     27.53    -21.41     24.75
   35.9939     25.32     27.53    -21.04     24.75
   36.0040     24.85     27.52    -21.50     24.75
   36.0142     25.00     27.52    -21.35     24.75
   36.0244     25.87     27.52    -20.48     24.75
   36.0345     24.66     27.51    -21.68     24.75
   36.0447     24.54     27.51    -21.80     24.76
   36.0548     25.45     27.50    -20.88     24.76
   36.0650     24.03     27.50    -22.30     24.76
   36.0752     25.65     27.50    -20.68     24.76
   36.0853     25.14     27.49    -21.18     24.76
   36.0955     25.04     27.49    -21.28     24.76
   36.1057     24.33     27.49    -21.99     24.76
   36.1158     24.41     27.48    -21.90     24.76
