Position (Â°),Intensity,Sigma,FWHM,FWHM Sigma
18.6414,150.25,2.47,0.8642,0.0254
20.4458,90.52,2.93,1.5608,0.0610
22.4839,108.83,2.32,1.1481,0.0327
28.5505,40.79,1.53,1.2072,0.0486
30.0909,29.20,2.22,2.9135,0.2319
33.1454,14.81,1.36,1.8334,0.1697
17.2985,70.04,0.00,2.5154,0.0125
20.1180,773.35,6.41,10.8851,0.1022
