Position (Â°),Intensity,Sigma,FWHM,FWHM Sigma
18.6476,168.96,3.80,0.8228,0.0178
20.5560,40.87,3.96,0.8904,0.0736
22.4898,106.67,3.46,1.0211,0.0318
28.5213,61.38,0.00,1.3206,0.0000
30.1921,10.00,0.00,-12.8226,0.0000
33.3459,50.00,0.00,4.6786,0.0000
17.0760,46.83,0.00,2.6786,0.0000
20.1462,968.80,9.94,8.7868,0.0944
