Position (Â°),Intensity,Sigma,FWHM,FWHM Sigma
18.6700,170.43,3.29,0.7964,0.0164
20.4743,110.59,5.90,1.5705,0.0793
22.5101,133.49,4.03,1.1256,0.0322
28.5505,46.79,0.00,1.0969,0.0000
30.0647,24.35,0.00,2.1574,0.0000
33.4325,40.01,0.00,3.1147,0.0000
17.4812,90.82,3.86,2.1147,0.0000
20.3269,989.19,14.69,12.5037,0.2725
