Position (Â°),Intensity,Sigma,FWHM,FWHM Sigma
18.6424,164.66,3.95,0.8366,0.0181
20.6057,55.83,5.67,1.0613,0.0777
22.4436,109.10,4.16,1.0662,0.0342
28.6048,48.69,2.46,1.1854,0.0564
30.0251,35.54,4.59,3.1256,0.3757
33.2414,18.00,3.74,2.0088,0.3298
17.2222,44.72,4.05,2.1982,0.0000
20.1044,931.19,15.52,9.8565,0.2117
