Position (Â°),Intensity,Sigma,FWHM,FWHM Sigma
18.7236,119.76,3.32,0.8574,0.0205
20.5112,81.80,5.37,1.6953,0.1230
22.5308,109.60,4.84,1.4128,0.0495
28.4795,30.64,1.72,1.2621,0.0676
29.9415,22.08,1.59,1.9893,0.0000
33.3250,10.80,1.11,1.9893,0.0000
18.0000,140.79,10.11,3.4779,0.1533
20.1410,710.37,12.61,11.4850,0.1922
