Position (Â°),Intensity,Sigma,FWHM,FWHM Sigma
18.7280,147.12,4.05,0.9115,0.1398
20.5000,91.74,7.87,1.7633,0.1985
22.5443,103.98,4.53,1.3010,0.1381
28.5649,37.42,2.51,1.4123,0.1570
30.0042,26.20,2.17,2.5501,0.0721
33.1788,14.95,1.44,2.5501,0.0721
17.5000,79.63,7.45,2.5501,0.0721
19.9888,805.15,17.65,10.8280,0.2623
