Position (Â°),Intensity,Sigma,FWHM,FWHM Sigma
18.8388,263.18,13.34,0.9586,0.0303
20.6140,111.45,16.83,1.5063,0.1391
22.5721,206.12,17.86,1.5422,0.0753
28.7594,52.10,3.94,1.2050,0.0984
30.1692,20.06,3.58,2.4018,0.0000
33.3803,21.77,3.37,2.4018,0.0000
16.9852,93.09,11.75,2.4018,0.0000
20.1180,1362.21,131.12,14.7004,2.0652
