Position (Â°),Intensity,Sigma,FWHM,FWHM Sigma
18.5108,131.93,0.00,0.7971,0.0000
20.2532,46.12,0.00,1.3725,0.0000
22.3324,94.15,0.00,1.1284,0.0000
28.2565,44.40,0.00,1.4793,0.0000
29.7515,31.87,0.00,2.6955,0.0000
33.3281,8.72,0.00,2.6955,0.0000
17.5000,105.78,0.00,2.6955,0.0000
19.9509,917.65,4.74,9.0491,0.0555
