Position (Â°),Intensity,Sigma,FWHM,FWHM Sigma
18.6627,128.29,4.58,0.9185,0.0237
20.3434,92.11,7.82,1.8003,0.1489
22.4674,102.49,4.61,1.3660,0.0518
28.5059,33.92,2.36,1.4058,0.0788
30.0125,26.86,2.16,2.7216,0.0000
33.2498,15.67,1.46,2.7216,0.0000
17.4000,91.01,5.65,2.7216,0.0000
19.9432,804.79,16.24,11.1580,0.2562
