Position (Â°),Intensity,Sigma,FWHM,FWHM Sigma
18.6702,149.77,4.70,0.9100,0.0250
20.3699,91.89,9.37,1.7438,0.1558
22.4489,112.40,5.88,1.3075,0.0549
28.5319,36.51,2.41,1.3126,0.0854
30.0125,28.43,4.14,2.7391,0.3655
33.3803,22.54,2.91,2.7844,0.0000
17.2723,82.80,4.96,2.2844,0.0000
20.1180,934.50,15.73,11.4887,0.3354
