Position (Â°),Intensity,Sigma,FWHM,FWHM Sigma
18.5531,173.25,0.00,1.0626,0.0000
20.3518,73.62,0.00,1.5482,0.0000
22.3330,89.09,0.00,1.1967,0.0000
28.5314,39.83,1.64,1.6029,0.0829
29.9342,5.00,0.00,1.7361,0.0000
33.2759,5.23,0.00,1.7361,0.0000
17.0000,68.25,0.00,2.1174,0.0000
20.0919,876.62,0.00,10.7256,0.0000
