Position (Â°),Intensity,Sigma,FWHM,FWHM Sigma
18.5483,94.12,4.81,0.8605,0.0283
20.1507,74.01,8.13,1.9576,0.2122
22.3554,72.75,3.88,1.2613,0.0552
28.3096,35.98,2.30,1.6113,0.0869
29.9342,28.39,1.81,2.3431,0.0000
33.0409,18.89,1.24,2.3431,0.0000
17.5000,70.20,4.75,2.3431,0.0000
19.7698,823.84,15.00,10.4513,0.1858
