 => TITLE: 
 => Data file name: C:\Users\stefano\Nextcloud2\uni\master-thesis\XRD\data\G101\G101--5-40-0.01-1000ms.xy
 => Instrm        :    1
 => Lambda(1&2)   :   1.54060  1.54060
 => Numb.of.points:      2951
 => Numb.of.peaks :         7
    2Theta     Yobs     Ycalc  Yobs-Ycal    Backg    Bragg     Posr  Intensity   FWHM    Eta
    6.0086     23.25     24.82    -28.98     20.00   18.6560     -2.47     154.81  0.7449  0.6123
    6.0187     23.49     24.83    -28.74     20.00   20.4835     -2.47      28.16  0.7028  0.6123
    6.0289     24.61     24.83    -27.63     20.00   22.3893     -2.47     112.87  1.0775  0.6123
    6.0391     24.29     24.84    -27.96     20.00   28.5505     -2.47      64.08  1.3561  0.6123
    6.0492     23.86     24.85    -28.39     20.00   30.0909     -2.47      25.51  2.2361  0.6123
    6.0594     23.98     24.86    -28.28     20.00   33.3020     -2.47      20.27  2.2361  0.6123
    6.0696     23.29     24.86    -28.98     20.00   19.6457     -2.47    1089.99  8.9083  0.6123
    6.0797     23.01     24.87    -29.27     20.00
    6.0899     24.02     24.88    -28.26     20.00
    6.1001     24.48     24.88    -27.81     20.00
    6.1102     24.13     24.89    -28.17     20.00
    6.1204     23.63     24.90    -28.68     20.00
    6.1306     23.51     24.91    -28.80     20.00
    6.1407     23.77     24.91    -28.55     20.00
    6.1509     23.48     24.92    -28.85     20.00
    6.1611     23.68     24.93    -28.65     20.00
    6.1712     23.79     24.94    -28.55     20.00
    6.1814     23.63     24.94    -28.72     20.00
    6.1915     23.48     24.95    -28.88     20.00
    6.2017     23.27     24.96    -29.09     20.00
    6.2119     23.77     24.97    -28.60     20.00
    6.2220     23.34     24.97    -29.04     20.00
    6.2322     24.24     24.98    -28.15     20.00
    6.2424     23.59     24.99    -28.80     20.00
    6.2525     23.08     25.00    -29.32     20.00
    6.2627     23.92     25.00    -28.49     20.00
    6.2729     23.64     25.01    -28.78     20.00
    6.2830     23.68     25.02    -28.74     20.00
    6.2932     23.76     25.03    -28.67     20.00
    6.3034     23.71     25.03    -28.73     20.00
    6.3135     22.95     25.04    -29.50     20.00
    6.3237     23.65     25.05    -28.80     20.00
    6.3338     23.32     25.06    -29.14     20.00
    6.3440     24.17     25.06    -28.30     20.00
    6.3542     23.54     25.07    -28.94     20.00
    6.3643     23.23     25.08    -29.26     20.00
    6.3745     23.49     25.09    -29.00     20.00
    6.3847     23.91     25.09    -28.59     20.00
    6.3948     23.20     25.10    -29.31     20.00
    6.4050     23.45     25.11    -29.07     20.00
    6.4152     22.84     25.12    -29.68     20.00
    6.4253     23.12     25.13    -29.41     20.00
    6.4355     23.94     25.13    -28.60     20.00
    6.4457     23.43     25.14    -29.12     20.00
    6.4558     23.63     25.15    -28.93     20.00
    6.4660     23.24     25.16    -29.32     20.00
    6.4762     23.12     25.17    -29.45     20.00
    6.4863     23.75     25.17    -28.83     20.00
    6.4965     23.61     25.18    -28.98     20.00
    6.5066     23.00     25.19    -29.60     20.00
    6.5168     23.07     25.20    -29.53     20.00
    6.5270     22.85     25.21    -29.76     20.00
    6.5371     23.45     25.21    -29.17     20.00
    6.5473     22.73     25.22    -29.90     20.00
    6.5575     23.57     25.23    -29.07     20.00
    6.5676     23.54     25.24    -29.10     20.00
    6.5778     23.45     25.25    -29.20     20.00
    6.5880     22.46     25.25    -30.20     20.00
    6.5981     22.93     25.26    -29.74     20.00
    6.6083     23.59     25.27    -29.09     20.00
    6.6185     23.39     25.28    -29.30     20.00
    6.6286     23.71     25.29    -28.98     20.00
    6.6388     24.54     25.30    -28.16     20.00
    6.6489     23.58     25.30    -29.13     20.00
    6.6591     23.30     25.31    -29.42     20.00
    6.6693     23.07     25.32    -29.66     20.00
    6.6794     24.30     25.33    -28.44     20.00
    6.6896     22.90     25.34    -29.84     20.00
    6.6998     23.11     25.35    -29.64     20.00
    6.7099     24.27     25.36    -28.49     20.00
    6.7201     24.11     25.36    -28.66     20.00
    6.7303     23.55     25.37    -29.23     20.00
    6.7404     23.59     25.38    -29.20     20.00
    6.7506     23.47     25.39    -29.33     20.00
    6.7608     23.02     25.40    -29.78     20.00
    6.7709     24.05     25.41    -28.76     20.00
    6.7811     24.45     25.42    -28.37     20.00
    6.7913     24.01     25.42    -28.82     20.00
    6.8014     24.13     25.43    -28.71     20.00
    6.8116     23.67     25.44    -29.18     20.00
    6.8217     23.05     25.45    -29.81     20.00
    6.8319     23.90     25.46    -28.97     20.00
    6.8421     24.06     25.47    -28.81     20.00
    6.8522     23.90     25.48    -28.98     20.00
    6.8624     23.30     25.49    -29.59     20.00
    6.8726     23.11     25.50    -29.79     20.00
    6.8827     24.02     25.50    -28.89     20.00
    6.8929     22.99     25.51    -29.93     20.00
    6.9031     24.07     25.52    -28.86     20.00
    6.9132     23.30     25.53    -29.64     20.00
    6.9234     24.42     25.54    -28.53     20.00
    6.9336     23.65     25.55    -29.31     20.00
    6.9437     24.04     25.56    -28.92     20.00
    6.9539     23.95     25.57    -29.02     20.00
    6.9640     23.91     25.58    -29.07     20.00
    6.9742     23.98     25.59    -29.01     20.00
    6.9844     23.54     25.60    -29.46     20.00
    6.9945     23.52     25.60    -29.49     20.00
    7.0047     24.31     25.61    -28.71     20.00
    7.0149     24.12     25.62    -28.91     20.00
    7.0250     23.63     25.63    -29.41     20.00
    7.0352     24.01     25.64    -29.04     20.00
    7.0454     24.19     25.65    -28.87     20.00
    7.0555     24.30     25.66    -28.77     20.00
    7.0657     24.88     25.67    -28.20     20.00
    7.0759     23.52     25.68    -29.57     20.00
    7.0860     24.88     25.69    -28.21     20.00
    7.0962     24.56     25.70    -28.54     20.00
    7.1064     24.23     25.71    -28.88     20.00
    7.1165     23.33     25.72    -29.79     20.00
    7.1267     24.89     25.73    -28.24     20.00
    7.1368     24.06     25.74    -29.08     20.00
    7.1470     23.47     25.75    -29.68     20.00
    7.1572     25.02     25.76    -28.14     20.00
    7.1673     23.98     25.77    -29.19     20.00
    7.1775     23.80     25.78    -29.38     20.00
    7.1877     24.50     25.79    -28.69     20.00
    7.1978     24.60     25.80    -28.60     20.00
    7.2080     24.45     25.81    -28.76     20.00
    7.2182     23.87     25.82    -29.35     20.00
    7.2283     23.36     25.83    -29.87     20.00
    7.2385     24.42     25.84    -28.82     20.00
    7.2487     23.30     25.85    -29.95     20.00
    7.2588     23.78     25.86    -29.48     20.00
    7.2690     24.25     25.87    -29.02     20.00
    7.2791     24.23     25.88    -29.05     20.00
    7.2893     24.41     25.89    -28.88     20.00
    7.2995     24.95     25.90    -28.35     20.00
    7.3096     24.43     25.91    -28.88     20.00
    7.3198     24.89     25.92    -28.43     20.00
    7.3300     24.54     25.93    -28.79     20.00
    7.3401     24.64     25.94    -28.70     20.00
    7.3503     24.26     25.95    -29.09     20.00
    7.3605     24.22     25.96    -29.14     20.00
    7.3706     24.98     25.97    -28.39     20.00
    7.3808     25.05     25.98    -28.33     20.00
    7.3910     24.66     25.99    -28.73     20.00
    7.4011     24.09     26.00    -29.32     20.00
    7.4113     24.58     26.01    -28.84     20.00
    7.4215     23.82     26.02    -29.61     20.00
    7.4316     24.89     26.03    -28.55     20.00
    7.4418     24.64     26.04    -28.81     20.00
    7.4519     24.88     26.05    -28.58     20.00
    7.4621     25.17     26.06    -28.30     20.00
    7.4723     25.42     26.07    -28.06     20.00
    7.4824     24.60     26.08    -28.89     20.00
    7.4926     24.91     26.10    -28.59     20.00
    7.5028     25.59     26.11    -27.92     20.00
    7.5129     24.87     26.12    -28.65     20.00
    7.5231     25.09     26.13    -28.44     20.00
    7.5333     24.38     26.14    -29.16     20.00
    7.5434     24.65     26.15    -28.91     20.00
    7.5536     24.94     26.16    -28.63     20.00
    7.5638     24.55     26.17    -29.03     20.00
    7.5739     24.52     26.18    -29.07     20.00
    7.5841     24.45     26.19    -29.15     20.00
    7.5942     25.21     26.21    -28.40     20.00
    7.6044     24.86     26.22    -28.76     20.00
    7.6146     25.70     26.23    -27.93     20.00
    7.6247     25.24     26.24    -28.41     20.00
    7.6349     24.97     26.25    -28.69     20.00
    7.6451     25.68     26.26    -27.99     20.00
    7.6552     25.96     26.27    -27.72     20.00
    7.6654     25.46     26.28    -28.23     20.00
    7.6756     24.68     26.30    -29.02     20.00
    7.6857     24.87     26.31    -28.84     20.00
    7.6959     25.16     26.32    -28.57     20.00
    7.7061     25.55     26.33    -28.19     20.00
    7.7162     25.96     26.34    -27.79     20.00
    7.7264     25.60     26.35    -28.16     20.00
    7.7365     25.53     26.37    -28.24     20.00
    7.7467     25.63     26.38    -28.15     20.00
    7.7569     25.45     26.39    -28.35     20.00
    7.7670     25.26     26.40    -28.55     20.00
    7.7772     25.97     26.41    -27.85     20.00
    7.7874     24.65     26.42    -29.18     20.00
    7.7975     25.40     26.44    -28.44     20.00
    7.8077     25.51     26.45    -28.34     20.00
    7.8179     25.68     26.46    -28.19     20.00
    7.8280     25.46     26.47    -28.42     20.00
    7.8382     25.78     26.48    -28.11     20.00
    7.8484     25.26     26.50    -28.64     20.00
    7.8585     25.51     26.51    -28.41     20.00
    7.8687     24.70     26.52    -29.23     20.00
    7.8789     25.22     26.53    -28.72     20.00
    7.8890     26.11     26.55    -27.84     20.00
    7.8992     26.27     26.56    -27.69     20.00
    7.9093     25.37     26.57    -28.61     20.00
    7.9195     26.18     26.58    -27.81     20.00
    7.9297     26.12     26.60    -27.88     20.00
    7.9398     26.01     26.61    -28.00     20.00
    7.9500     26.21     26.62    -27.82     20.00
    7.9602     26.27     26.63    -27.77     20.00
    7.9703     26.59     26.65    -27.46     20.00
    7.9805     25.77     26.66    -28.29     20.00
    7.9907     26.28     26.67    -27.80     20.00
    8.0008     25.68     26.68    -28.41     20.00
    8.0110     25.95     26.70    -28.15     20.00
    8.0212     25.98     26.71    -28.14     20.00
    8.0313     24.71     26.72    -29.42     20.00
    8.0415     26.29     26.74    -27.85     20.00
    8.0516     26.90     26.75    -27.26     20.00
    8.0618     25.71     26.76    -28.46     20.00
    8.0720     25.50     26.78    -28.68     20.00
    8.0821     26.46     26.79    -27.73     20.00
    8.0923     26.04     26.80    -28.17     20.00
    8.1025     26.06     26.82    -28.16     20.00
    8.1126     26.81     26.83    -27.42     20.00
    8.1228     25.69     26.84    -28.56     20.00
    8.1330     26.73     26.86    -27.53     20.00
    8.1431     26.95     26.87    -27.32     20.00
    8.1533     26.37     26.88    -27.92     20.00
    8.1635     26.11     26.90    -28.19     20.00
    8.1736     26.90     26.91    -27.42     20.00
    8.1838     27.52     26.92    -26.81     20.00
    8.1940     26.54     26.94    -27.80     20.00
    8.2041     26.18     26.95    -28.18     20.00
    8.2143     27.04     26.96    -27.33     20.00
    8.2244     26.80     26.98    -27.58     20.00
    8.2346     26.38     26.99    -28.02     20.00
    8.2448     26.26     27.01    -28.15     20.00
    8.2549     26.48     27.02    -27.95     20.00
    8.2651     26.82     27.03    -27.62     20.00
    8.2753     26.52     27.05    -27.93     20.00
    8.2854     25.99     27.06    -28.48     20.00
    8.2956     27.39     27.08    -27.09     20.00
    8.3058     26.45     27.09    -28.05     20.00
    8.3159     26.35     27.10    -28.16     20.00
    8.3261     27.19     27.12    -27.34     20.00
    8.3363     26.73     27.13    -27.81     20.00
    8.3464     26.86     27.15    -27.69     20.00
    8.3566     27.13     27.16    -27.44     20.00
    8.3667     26.93     27.18    -27.65     20.00
    8.3769     27.46     27.19    -27.14     20.00
    8.3871     26.88     27.21    -27.73     20.00
    8.3972     27.39     27.22    -27.24     20.00
    8.4074     26.98     27.24    -27.66     20.00
    8.4176     27.69     27.25    -26.97     20.00
    8.4277     27.07     27.27    -27.60     20.00
    8.4379     27.24     27.28    -27.45     20.00
    8.4481     27.73     27.30    -26.97     20.00
    8.4582     27.66     27.31    -27.06     20.00
    8.4684     27.08     27.33    -27.65     20.00
    8.4786     26.91     27.34    -27.84     20.00
    8.4887     27.84     27.36    -26.92     20.00
    8.4989     26.73     27.37    -28.05     20.00
    8.5091     27.18     27.39    -27.61     20.00
    8.5192     27.71     27.40    -27.10     20.00
    8.5294     28.57     27.42    -26.25     20.00
    8.5395     27.00     27.43    -27.84     20.00
    8.5497     27.02     27.45    -27.83     20.00
    8.5599     27.63     27.46    -27.24     20.00
    8.5700     27.74     27.48    -27.15     20.00
    8.5802     27.68     27.50    -27.22     20.00
    8.5904     27.41     27.51    -27.51     20.00
    8.6005     27.29     27.53    -27.64     20.00
    8.6107     27.98     27.54    -26.97     20.00
    8.6209     28.55     27.56    -26.41     20.00
    8.6310     27.77     27.57    -27.21     20.00
    8.6412     27.54     27.59    -27.46     20.00
    8.6514     27.10     27.61    -27.91     20.00
    8.6615     28.14     27.62    -26.89     20.00
    8.6717     27.46     27.64    -27.59     20.00
    8.6818     27.77     27.66    -27.29     20.00
    8.6920     28.20     27.67    -26.88     20.00
    8.7022     27.51     27.69    -27.58     20.00
    8.7123     29.00     27.70    -26.11     20.00
    8.7225     27.95     27.72    -27.18     20.00
    8.7327     27.83     27.74    -27.31     20.00
    8.7428     27.51     27.75    -27.65     20.00
    8.7530     28.24     27.77    -26.94     20.00
    8.7632     26.57     27.79    -28.62     20.00
    8.7733     28.47     27.81    -26.74     20.00
    8.7835     27.76     27.82    -27.47     20.00
    8.7937     27.70     27.84    -27.55     20.00
    8.8038     28.83     27.86    -26.43     20.00
    8.8140     27.86     27.87    -27.42     20.00
    8.8242     27.71     27.89    -27.59     20.00
    8.8343     27.91     27.91    -27.40     20.00
    8.8445     29.06     27.93    -26.27     20.00
    8.8546     27.37     27.94    -27.98     20.00
    8.8648     28.30     27.96    -27.07     20.00
    8.8750     29.52     27.98    -25.86     20.00
    8.8851     27.99     28.00    -27.41     20.00
    8.8953     28.57     28.01    -26.85     20.00
    8.9055     29.10     28.03    -26.34     20.00
    8.9156     28.49     28.05    -26.96     20.00
    8.9258     28.40     28.07    -27.07     20.00
    8.9360     29.23     28.08    -26.26     20.00
    8.9461     28.48     28.10    -27.03     20.00
    8.9563     28.90     28.12    -26.63     20.00
    8.9665     28.18     28.14    -27.36     20.00
    8.9766     28.85     28.16    -26.71     20.00
    8.9868     28.66     28.17    -26.92     20.00
    8.9969     28.57     28.19    -27.03     20.00
    9.0071     28.90     28.21    -26.72     20.00
    9.0173     28.76     28.23    -26.88     20.00
    9.0274     29.46     28.25    -26.19     20.00
    9.0376     28.98     28.27    -26.69     20.00
    9.0478     29.13     28.29    -26.56     20.00
    9.0579     28.90     28.30    -26.81     20.00
    9.0681     28.44     28.32    -27.29     20.00
    9.0783     29.34     28.34    -26.41     20.00
    9.0884     28.78     28.36    -26.99     20.00
    9.0986     28.62     28.38    -27.17     20.00
    9.1088     28.82     28.40    -26.99     20.00
    9.1189     29.13     28.42    -26.69     20.00
    9.1291     28.87     28.44    -26.97     20.00
    9.1393     29.09     28.46    -26.77     20.00
    9.1494     29.95     28.48    -25.93     20.00
    9.1596     29.88     28.50    -26.02     20.00
    9.1697     28.58     28.52    -27.34     20.00
    9.1799     29.09     28.54    -26.85     20.00
    9.1901     29.12     28.56    -26.84     20.00
    9.2002     30.21     28.57    -25.77     20.00
    9.2104     29.50     28.59    -26.50     20.00
    9.2206     28.59     28.61    -27.43     20.00
    9.2307     29.23     28.63    -26.81     20.00
    9.2409     29.63     28.65    -26.43     20.00
    9.2511     29.82     28.68    -26.26     20.00
    9.2612     30.05     28.70    -26.05     20.00
    9.2714     28.47     28.72    -27.65     20.00
    9.2816     27.70     28.74    -28.44     20.00
    9.2917     29.61     28.76    -26.55     20.00
    9.3019     30.32     28.78    -25.86     20.00
    9.3120     29.49     28.80    -26.71     20.00
    9.3222     29.15     28.82    -27.07     20.00
    9.3324     30.22     28.84    -26.03     20.00
    9.3425     29.64     28.86    -26.63     20.00
    9.3527     29.60     28.88    -26.69     20.00
    9.3629     30.40     28.90    -25.91     20.00
    9.3730     29.26     28.92    -27.07     20.00
    9.3832     29.99     28.94    -26.36     20.00
    9.3934     30.20     28.97    -26.17     20.00
    9.4035     29.13     28.99    -27.26     20.00
    9.4137     30.21     29.01    -26.20     20.00
    9.4239     30.20     29.03    -26.24     20.00
    9.4340     30.59     29.05    -25.87     20.00
    9.4442     29.77     29.07    -26.71     20.00
    9.4544     30.28     29.10    -26.22     20.00
    9.4645     30.16     29.12    -26.36     20.00
    9.4747     30.15     29.14    -26.40     20.00
    9.4848     29.86     29.16    -26.71     20.00
    9.4950     29.80     29.18    -26.79     20.00
    9.5052     30.73     29.21    -25.88     20.00
    9.5153     29.65     29.23    -26.98     20.00
    9.5255     30.02     29.25    -26.64     20.00
    9.5357     30.42     29.27    -26.26     20.00
    9.5458     30.09     29.30    -26.61     20.00
    9.5560     29.77     29.32    -26.95     20.00
    9.5662     30.13     29.34    -26.62     20.00
    9.5763     31.51     29.36    -25.26     20.00
    9.5865     30.35     29.39    -26.44     20.00
    9.5967     30.26     29.41    -26.56     20.00
    9.6068     30.27     29.43    -26.57     20.00
    9.6170     30.17     29.46    -26.69     20.00
    9.6271     29.88     29.48    -27.01     20.00
    9.6373     29.93     29.50    -26.98     20.00
    9.6475     29.95     29.53    -26.98     20.00
    9.6576     31.03     29.55    -25.93     20.00
    9.6678     30.74     29.57    -26.24     20.00
    9.6780     30.94     29.60    -26.06     20.00
    9.6881     30.11     29.62    -26.92     20.00
    9.6983     31.06     29.65    -25.99     20.00
    9.7085     30.55     29.67    -26.53     20.00
    9.7186     30.57     29.69    -26.53     20.00
    9.7288     30.74     29.72    -26.38     20.00
    9.7390     30.19     29.74    -26.96     20.00
    9.7491     30.74     29.77    -26.43     20.00
    9.7593     31.48     29.79    -25.72     20.00
    9.7694     30.29     29.82    -26.93     20.00
    9.7796     30.95     29.84    -26.30     20.00
    9.7898     30.89     29.87    -26.38     20.00
    9.7999     30.16     29.89    -27.14     20.00
    9.8101     30.26     29.91    -27.06     20.00
    9.8203     30.74     29.94    -26.61     20.00
    9.8304     31.20     29.97    -26.17     20.00
    9.8406     31.32     29.99    -26.08     20.00
    9.8508     31.24     30.02    -26.18     20.00
    9.8609     30.42     30.04    -27.03     20.00
    9.8711     30.96     30.07    -26.51     20.00
    9.8813     30.95     30.09    -26.55     20.00
    9.8914     31.20     30.12    -26.32     20.00
    9.9016     31.70     30.14    -25.85     20.00
    9.9118     31.09     30.17    -26.49     20.00
    9.9219     30.95     30.20    -26.65     20.00
    9.9321     31.43     30.22    -26.20     20.00
    9.9422     31.17     30.25    -26.48     20.00
    9.9524     31.51     30.28    -26.17     20.00
    9.9626     30.85     30.30    -26.86     20.00
    9.9727     31.45     30.33    -26.28     20.00
    9.9829     31.78     30.36    -25.98     20.00
    9.9931     31.38     30.38    -26.41     20.00
   10.0032     31.68     30.41    -26.14     20.00
   10.0134     32.49     30.44    -25.35     20.00
   10.0236     30.42     30.46    -27.45     20.00
   10.0337     30.98     30.49    -26.92     20.00
   10.0439     31.41     30.52    -26.51     20.00
   10.0541     31.66     30.55    -26.29     20.00
   10.0642     31.49     30.57    -26.49     20.00
   10.0744     31.47     30.60    -26.54     20.00
   10.0845     31.96     30.63    -26.07     20.00
   10.0947     31.82     30.66    -26.24     20.00
   10.1049     31.30     30.68    -26.79     20.00
   10.1150     31.99     30.71    -26.13     20.00
   10.1252     31.34     30.74    -26.81     20.00
   10.1354     30.99     30.77    -27.19     20.00
   10.1455     31.63     30.80    -26.57     20.00
   10.1557     31.09     30.83    -27.14     20.00
   10.1659     31.82     30.85    -26.44     20.00
   10.1760     32.23     30.88    -26.06     20.00
   10.1862     32.21     30.91    -26.11     20.00
   10.1964     32.49     30.94    -25.86     20.00
   10.2065     32.24     30.97    -26.14     20.00
   10.2167     32.51     31.00    -25.90     20.00
   10.2269     32.43     31.03    -26.01     20.00
   10.2370     31.68     31.06    -26.78     20.00
   10.2472     31.71     31.09    -26.78     20.00
   10.2573     31.88     31.12    -26.64     20.00
   10.2675     32.24     31.15    -26.31     20.00
   10.2777     32.38     31.18    -26.20     20.00
   10.2878     32.57     31.21    -26.04     20.00
   10.2980     32.10     31.24    -26.54     20.00
   10.3082     32.70     31.27    -25.97     20.00
   10.3183     32.93     31.30    -25.77     20.00
   10.3285     32.41     31.33    -26.33     20.00
   10.3387     31.82     31.36    -26.95     20.00
   10.3488     32.67     31.39    -26.13     20.00
   10.3590     32.57     31.42    -26.26     20.00
   10.3692     31.43     31.45    -27.43     20.00
   10.3793     32.44     31.48    -26.45     20.00
   10.3895     31.79     31.51    -27.13     20.00
   10.3996     31.74     31.55    -27.21     20.00
   10.4098     33.21     31.58    -25.77     20.00
   10.4200     32.54     31.61    -26.48     20.00
   10.4301     32.32     31.64    -26.73     20.00
   10.4403     32.38     31.67    -26.70     20.00
   10.4505     32.27     31.70    -26.84     20.00
   10.4606     33.01     31.74    -26.13     20.00
   10.4708     32.60     31.77    -26.58     20.00
   10.4810     33.37     31.80    -25.84     20.00
   10.4911     32.42     31.83    -26.82     20.00
   10.5013     32.39     31.87    -26.88     20.00
   10.5115     33.15     31.90    -26.16     20.00
   10.5216     32.80     31.93    -26.54     20.00
   10.5318     32.38     31.97    -26.99     20.00
   10.5420     33.86     32.00    -25.54     20.00
   10.5521     33.37     32.03    -26.07     20.00
   10.5623     32.91     32.06    -26.56     20.00
   10.5724     32.73     32.10    -26.77     20.00
   10.5826     33.57     32.13    -25.97     20.00
   10.5928     32.88     32.17    -26.69     20.00
   10.6029     32.90     32.20    -26.71     20.00
   10.6131     33.81     32.23    -25.83     20.00
   10.6233     33.65     32.27    -26.02     20.00
   10.6334     33.40     32.30    -26.31     20.00
   10.6436     33.44     32.34    -26.30     20.00
   10.6538     33.28     32.37    -26.50     20.00
   10.6639     33.01     32.41    -26.80     20.00
   10.6741     32.63     32.44    -27.22     20.00
   10.6843     33.21     32.48    -26.67     20.00
   10.6944     32.66     32.51    -27.26     20.00
   10.7046     34.21     32.55    -25.74     20.00
   10.7147     33.55     32.58    -26.44     20.00
   10.7249     34.23     32.62    -25.79     20.00
   10.7351     33.85     32.65    -26.21     20.00
   10.7452     33.68     32.69    -26.41     20.00
   10.7554     34.35     32.72    -25.78     20.00
   10.7656     33.15     32.76    -27.02     20.00
   10.7757     33.78     32.80    -26.42     20.00
   10.7859     33.37     32.83    -26.87     20.00
   10.7961     32.74     32.87    -27.54     20.00
   10.8062     33.87     32.91    -26.44     20.00
   10.8164     33.57     32.94    -26.78     20.00
   10.8266     33.70     32.98    -26.69     20.00
   10.8367     34.12     33.02    -26.30     20.00
   10.8469     33.70     33.05    -26.76     20.00
   10.8571     33.92     33.09    -26.58     20.00
   10.8672     32.58     33.13    -27.95     20.00
   10.8774     34.39     33.17    -26.18     20.00
   10.8875     32.74     33.20    -27.87     20.00
   10.8977     33.29     33.24    -27.36     20.00
   10.9079     33.41     33.28    -27.28     20.00
   10.9180     33.77     33.32    -26.95     20.00
   10.9282     33.42     33.36    -27.34     20.00
   10.9384     34.66     33.39    -26.14     20.00
   10.9485     34.48     33.43    -26.36     20.00
   10.9587     33.53     33.47    -27.35     20.00
   10.9689     34.57     33.51    -26.35     20.00
   10.9790     34.26     33.55    -26.70     20.00
   10.9892     34.11     33.59    -26.89     20.00
   10.9994     34.05     33.63    -26.98     20.00
   11.0095     34.63     33.67    -26.44     20.00
   11.0197     33.95     33.71    -27.16     20.00
   11.0298     34.21     33.75    -26.94     20.00
   11.0400     33.93     33.79    -27.26     20.00
   11.0502     34.32     33.83    -26.91     20.00
   11.0603     33.82     33.87    -27.45     20.00
   11.0705     34.54     33.91    -26.77     20.00
   11.0807     34.55     33.95    -26.81     20.00
   11.0908     34.52     33.99    -26.88     20.00
   11.1010     34.80     34.03    -26.64     20.00
   11.1112     34.89     34.07    -26.59     20.00
   11.1213     34.50     34.11    -27.02     20.00
   11.1315     35.77     34.15    -25.79     20.00
   11.1417     35.63     34.20    -25.97     20.00
   11.1518     34.56     34.24    -27.08     20.00
   11.1620     34.41     34.28    -27.28     20.00
   11.1722     34.29     34.32    -27.44     20.00
   11.1823     34.78     34.36    -26.99     20.00
   11.1925     35.12     34.41    -26.69     20.00
   11.2026     35.30     34.45    -26.55     20.00
   11.2128     35.69     34.49    -26.21     20.00
   11.2230     35.52     34.53    -26.42     20.00
   11.2331     34.17     34.58    -27.81     20.00
   11.2433     35.23     34.62    -26.80     20.00
   11.2535     34.85     34.66    -27.22     20.00
   11.2636     35.01     34.71    -27.10     20.00
   11.2738     34.52     34.75    -27.64     20.00
   11.2840     35.37     34.79    -26.83     20.00
   11.2941     35.07     34.84    -27.17     20.00
   11.3043     34.65     34.88    -27.64     20.00
   11.3145     36.09     34.93    -26.24     20.00
   11.3246     34.89     34.97    -27.49     20.00
   11.3348     35.77     35.01    -26.65     20.00
   11.3449     36.12     35.06    -26.35     20.00
   11.3551     36.00     35.10    -26.51     20.00
   11.3653     36.66     35.15    -25.90     20.00
   11.3754     34.94     35.19    -27.66     20.00
   11.3856     35.82     35.24    -26.83     20.00
   11.3958     35.46     35.29    -27.23     20.00
   11.4059     35.39     35.33    -27.35     20.00
   11.4161     35.02     35.38    -27.76     20.00
   11.4263     36.09     35.42    -26.74     20.00
   11.4364     36.01     35.47    -26.87     20.00
   11.4466     35.85     35.52    -27.07     20.00
   11.4568     35.50     35.56    -27.47     20.00
   11.4669     36.67     35.61    -26.35     20.00
   11.4771     35.15     35.66    -27.91     20.00
   11.4873     35.12     35.70    -27.99     20.00
   11.4974     36.90     35.75    -26.26     20.00
   11.5076     35.62     35.80    -27.58     20.00
   11.5177     35.94     35.85    -27.31     20.00
   11.5279     35.95     35.89    -27.35     20.00
   11.5381     34.56     35.94    -28.79     20.00
   11.5482     36.48     35.99    -26.92     20.00
   11.5584     35.10     36.04    -28.34     20.00
   11.5686     35.42     36.09    -28.07     20.00
   11.5787     37.22     36.13    -26.32     20.00
   11.5889     36.09     36.18    -27.50     20.00
   11.5991     36.09     36.23    -27.55     20.00
   11.6092     36.62     36.28    -27.07     20.00
   11.6194     35.79     36.33    -27.95     20.00
   11.6296     37.11     36.38    -26.68     20.00
   11.6397     37.02     36.43    -26.82     20.00
   11.6499     36.87     36.48    -27.02     20.00
   11.6600     36.44     36.53    -27.50     20.00
   11.6702     37.09     36.58    -26.90     20.00
   11.6804     36.15     36.63    -27.89     20.00
   11.6905     36.83     36.68    -27.26     20.00
   11.7007     37.01     36.73    -27.13     20.00
   11.7109     37.37     36.78    -26.82     20.00
   11.7210     36.56     36.83    -27.68     20.00
   11.7312     36.15     36.89    -28.14     20.00
   11.7414     36.69     36.94    -27.65     20.00
   11.7515     37.27     36.99    -27.13     20.00
   11.7617     36.73     37.04    -27.72     20.00
   11.7719     36.75     37.09    -27.75     20.00
   11.7820     37.38     37.15    -27.17     20.00
   11.7922     37.49     37.20    -27.11     20.00
   11.8023     37.67     37.25    -26.99     20.00
   11.8125     36.98     37.30    -27.73     20.00
   11.8227     37.18     37.36    -27.58     20.00
   11.8328     37.87     37.41    -26.95     20.00
   11.8430     37.57     37.46    -27.30     20.00
   11.8532     36.82     37.52    -28.10     20.00
   11.8633     38.16     37.57    -26.82     20.00
   11.8735     38.10     37.62    -26.93     20.00
   11.8837     37.37     37.68    -27.72     20.00
   11.8938     36.43     37.73    -28.71     20.00
   11.9040     37.09     37.79    -28.10     20.00
   11.9142     37.13     37.84    -28.12     20.00
   11.9243     38.20     37.90    -27.10     20.00
   11.9345     37.02     37.95    -28.34     20.00
   11.9447     38.39     38.01    -27.02     20.00
   11.9548     38.61     38.06    -26.86     20.00
   11.9650     38.00     38.12    -27.53     20.00
   11.9751     38.30     38.18    -27.28     20.00
   11.9853     37.30     38.23    -28.34     20.00
   11.9955     37.79     38.29    -27.90     20.00
   12.0056     37.84     38.34    -27.91     20.00
   12.0158     38.07     38.40    -27.74     20.00
   12.0260     38.12     38.46    -27.74     20.00
   12.0361     38.43     38.51    -27.49     20.00
   12.0463     38.32     38.57    -27.66     20.00
   12.0565     38.22     38.63    -27.82     20.00
   12.0666     38.84     38.69    -27.25     20.00
   12.0768     37.73     38.75    -28.42     20.00
   12.0870     39.49     38.80    -26.72     20.00
   12.0971     38.87     38.86    -27.40     20.00
   12.1073     38.07     38.92    -28.26     20.00
   12.1174     38.37     38.98    -28.01     20.00
   12.1276     38.73     39.04    -27.71     20.00
   12.1378     39.03     39.10    -27.47     20.00
   12.1479     38.04     39.16    -28.52     20.00
   12.1581     38.87     39.22    -27.75     20.00
   12.1683     39.32     39.28    -27.36     20.00
   12.1784     39.24     39.34    -27.50     20.00
   12.1886     39.49     39.40    -27.31     20.00
   12.1988     40.30     39.46    -26.56     20.00
   12.2089     39.19     39.52    -27.73     20.00
   12.2191     37.87     39.58    -29.11     20.00
   12.2293     40.10     39.64    -26.94     20.00
   12.2394     39.58     39.70    -27.53     20.00
   12.2496     38.66     39.76    -28.51     20.00
   12.2598     39.76     39.82    -27.47     20.00
   12.2699     39.50     39.88    -27.79     20.00
   12.2801     40.61     39.95    -26.74     20.00
   12.2902     39.21     40.01    -28.20     20.00
   12.3004     39.51     40.07    -27.97     20.00
   12.3106     39.12     40.13    -28.42     20.00
   12.3207     39.54     40.20    -28.06     20.00
   12.3309     40.35     40.26    -27.31     20.00
   12.3411     39.74     40.32    -27.99     20.00
   12.3512     39.91     40.39    -27.88     20.00
   12.3614     39.95     40.45    -27.91     20.00
   12.3716     38.96     40.51    -28.96     20.00
   12.3817     40.08     40.58    -27.90     20.00
   12.3919     39.34     40.64    -28.71     20.00
   12.4021     39.80     40.71    -28.31     20.00
   12.4122     40.22     40.77    -27.96     20.00
   12.4224     39.66     40.84    -28.58     20.00
   12.4325     40.65     40.90    -27.66     20.00
   12.4427     40.34     40.97    -28.03     20.00
   12.4529     39.78     41.03    -28.66     20.00
   12.4630     40.59     41.10    -27.91     20.00
   12.4732     40.89     41.16    -27.68     20.00
   12.4834     40.74     41.23    -27.90     20.00
   12.4935     40.74     41.30    -27.96     20.00
   12.5037     40.76     41.36    -28.01     20.00
   12.5139     41.17     41.43    -27.67     20.00
   12.5240     40.45     41.50    -28.45     20.00
   12.5342     41.13     41.56    -27.84     20.00
   12.5444     41.84     41.63    -27.20     20.00
   12.5545     41.02     41.70    -28.09     20.00
   12.5647     41.15     41.77    -28.02     20.00
   12.5749     40.49     41.84    -28.75     20.00
   12.5850     41.49     41.90    -27.82     20.00
   12.5952     41.55     41.97    -27.83     20.00
   12.6053     41.07     42.04    -28.38     20.00
   12.6155     41.23     42.11    -28.29     20.00
   12.6257     41.54     42.18    -28.05     20.00
   12.6358     41.51     42.25    -28.15     20.00
   12.6460     41.46     42.32    -28.27     20.00
   12.6562     41.38     42.39    -28.42     20.00
   12.6663     41.87     42.46    -28.00     20.00
   12.6765     42.68     42.53    -27.26     20.00
   12.6867     42.55     42.60    -27.46     20.00
   12.6968     42.56     42.67    -27.52     20.00
   12.7070     42.23     42.74    -27.92     20.00
   12.7172     42.11     42.81    -28.11     20.00
   12.7273     41.99     42.89    -28.30     20.00
   12.7375     42.62     42.96    -27.74     20.00
   12.7476     42.40     43.03    -28.04     20.00
   12.7578     41.65     43.10    -28.86     20.00
   12.7680     42.84     43.17    -27.74     20.00
   12.7781     41.73     43.25    -28.92     20.00
   12.7883     42.77     43.32    -27.96     20.00
   12.7985     42.02     43.39    -28.78     20.00
   12.8086     42.37     43.47    -28.50     20.00
   12.8188     42.45     43.54    -28.50     20.00
   12.8290     42.78     43.61    -28.24     20.00
   12.8391     42.78     43.69    -28.31     20.00
   12.8493     43.91     43.76    -27.26     20.00
   12.8595     43.49     43.84    -27.75     20.00
   12.8696     41.89     43.91    -29.43     20.00
   12.8798     42.91     43.99    -28.48     20.00
   12.8900     42.15     44.06    -29.32     20.00
   12.9001     43.73     44.14    -27.81     20.00
   12.9103     43.03     44.21    -28.59     20.00
   12.9204     43.54     44.29    -28.15     20.00
   12.9306     43.00     44.36    -28.77     20.00
   12.9408     42.40     44.44    -29.45     20.00
   12.9509     43.53     44.52    -28.39     20.00
   12.9611     43.18     44.59    -28.82     20.00
   12.9713     43.61     44.67    -28.47     20.00
   12.9814     44.45     44.75    -27.71     20.00
   12.9916     43.97     44.83    -28.26     20.00
   13.0018     44.42     44.90    -27.89     20.00
   13.0119     44.01     44.98    -28.38     20.00
   13.0221     42.57     45.06    -29.90     20.00
   13.0323     43.30     45.14    -29.25     20.00
   13.0424     43.98     45.22    -28.64     20.00
   13.0526     44.22     45.30    -28.48     20.00
   13.0627     44.01     45.38    -28.77     20.00
   13.0729     45.02     45.46    -27.84     20.00
   13.0831     44.23     45.54    -28.71     20.00
   13.0932     44.93     45.62    -28.09     20.00
   13.1034     45.57     45.70    -27.53     20.00
   13.1136     44.27     45.78    -28.91     20.00
   13.1237     44.46     45.86    -28.80     20.00
   13.1339     45.36     45.94    -27.98     20.00
   13.1441     44.93     46.02    -28.49     20.00
   13.1542     44.59     46.10    -28.92     20.00
   13.1644     44.55     46.18    -29.04     20.00
   13.1746     45.74     46.26    -27.93     20.00
   13.1847     45.64     46.35    -28.11     20.00
   13.1949     44.95     46.43    -28.88     20.00
   13.2051     44.33     46.51    -29.59     20.00
   13.2152     46.23     46.59    -27.77     20.00
   13.2254     44.33     46.68    -29.75     20.00
   13.2355     46.55     46.76    -27.62     20.00
   13.2457     46.03     46.84    -28.22     20.00
   13.2559     45.64     46.93    -28.69     20.00
   13.2660     45.62     47.01    -28.80     20.00
   13.2762     45.95     47.10    -28.55     20.00
   13.2864     44.60     47.18    -29.99     20.00
   13.2965     45.73     47.26    -28.94     20.00
   13.3067     46.80     47.35    -27.96     20.00
   13.3169     45.67     47.44    -29.17     20.00
   13.3270     46.96     47.52    -27.97     20.00
   13.3372     44.66     47.61    -30.35     20.00
   13.3474     45.85     47.69    -29.25     20.00
   13.3575     46.52     47.78    -28.66     20.00
   13.3677     46.94     47.86    -28.33     20.00
   13.3778     46.57     47.95    -28.79     20.00
   13.3880     46.66     48.04    -28.78     20.00
   13.3982     47.47     48.13    -28.06     20.00
   13.4083     46.19     48.21    -29.43     20.00
   13.4185     45.35     48.30    -30.36     20.00
   13.4287     46.43     48.39    -29.36     20.00
   13.4388     47.25     48.48    -28.63     20.00
   13.4490     46.48     48.57    -29.49     20.00
   13.4592     47.12     48.65    -28.94     20.00
   13.4693     46.45     48.74    -29.70     20.00
   13.4795     46.72     48.83    -29.52     20.00
   13.4897     47.63     48.92    -28.70     20.00
   13.4998     47.69     49.01    -28.73     20.00
   13.5100     47.42     49.10    -29.09     20.00
   13.5201     48.02     49.19    -28.58     20.00
   13.5303     47.30     49.28    -29.39     20.00
   13.5405     48.18     49.37    -28.60     20.00
   13.5506     47.94     49.46    -28.93     20.00
   13.5608     47.90     49.55    -29.06     20.00
   13.5710     48.05     49.65    -29.00     20.00
   13.5811     48.62     49.74    -28.52     20.00
   13.5913     48.63     49.83    -28.61     20.00
   13.6015     49.68     49.92    -27.65     20.00
   13.6116     47.82     50.01    -29.60     20.00
   13.6218     48.31     50.11    -29.20     20.00
   13.6320     48.66     50.20    -28.95     20.00
   13.6421     48.17     50.29    -29.53     20.00
   13.6523     48.80     50.39    -28.99     20.00
   13.6625     48.59     50.48    -29.30     20.00
   13.6726     48.47     50.57    -29.51     20.00
   13.6828     48.62     50.67    -29.45     20.00
   13.6929     49.43     50.76    -28.74     20.00
   13.7031     49.92     50.86    -28.34     20.00
   13.7133     49.00     50.95    -29.36     20.00
   13.7234     48.80     51.05    -29.65     20.00
   13.7336     48.97     51.14    -29.58     20.00
   13.7438     49.03     51.24    -29.61     20.00
   13.7539     49.48     51.33    -29.26     20.00
   13.7641     49.15     51.43    -29.69     20.00
   13.7743     49.77     51.53    -29.16     20.00
   13.7844     49.48     51.62    -29.55     20.00
   13.7946     50.77     51.72    -28.36     20.00
   13.8048     50.70     51.82    -28.52     20.00
   13.8149     50.05     51.91    -29.27     20.00
   13.8251     50.87     52.01    -28.55     20.00
   13.8352     50.24     52.11    -29.28     20.00
   13.8454     50.46     52.21    -29.15     20.00
   13.8556     50.95     52.31    -28.76     20.00
   13.8657     50.18     52.41    -29.63     20.00
   13.8759     51.23     52.50    -28.68     20.00
   13.8861     51.07     52.60    -28.94     20.00
   13.8962     50.45     52.70    -29.66     20.00
   13.9064     50.06     52.80    -30.15     20.00
   13.9166     51.39     52.90    -28.92     20.00
   13.9267     51.01     53.00    -29.40     20.00
   13.9369     50.90     53.10    -29.61     20.00
   13.9471     50.67     53.20    -29.94     20.00
   13.9572     51.60     53.30    -29.11     20.00
   13.9674     51.74     53.41    -29.07     20.00
   13.9776     51.13     53.51    -29.78     20.00
   13.9877     52.96     53.61    -28.06     20.00
   13.9979     51.40     53.71    -29.72     20.00
   14.0080     51.60     53.81    -29.62     20.00
   14.0182     52.21     53.92    -29.11     20.00
   14.0284     52.38     54.02    -29.05     20.00
   14.0385     52.53     54.12    -29.00     20.00
   14.0487     52.68     54.23    -28.95     20.00
   14.0589     51.98     54.33    -29.76     20.00
   14.0690     53.12     54.43    -28.72     20.00
   14.0792     52.32     54.54    -29.62     20.00
   14.0894     52.43     54.64    -29.62     20.00
   14.0995     52.54     54.74    -29.61     20.00
   14.1097     53.72     54.85    -28.54     20.00
   14.1199     52.34     54.96    -30.02     20.00
   14.1300     53.90     55.06    -28.57     20.00
   14.1402     53.56     55.17    -29.01     20.00
   14.1503     52.92     55.27    -29.76     20.00
   14.1605     54.93     55.38    -27.85     20.00
   14.1707     52.99     55.48    -29.90     20.00
   14.1808     53.82     55.59    -29.18     20.00
   14.1910     53.79     55.70    -29.31     20.00
   14.2012     52.57     55.80    -30.64     20.00
   14.2113     54.46     55.91    -28.86     20.00
   14.2215     54.98     56.02    -28.45     20.00
   14.2317     54.74     56.13    -28.79     20.00
   14.2418     54.88     56.23    -28.76     20.00
   14.2520     54.30     56.34    -29.45     20.00
   14.2622     54.64     56.45    -29.22     20.00
   14.2723     54.40     56.56    -29.57     20.00
   14.2825     54.41     56.67    -29.67     20.00
   14.2927     55.59     56.78    -28.60     20.00
   14.3028     55.21     56.89    -29.08     20.00
   14.3130     54.84     57.00    -29.57     20.00
   14.3231     54.30     57.11    -30.21     20.00
   14.3333     56.36     57.22    -28.27     20.00
   14.3435     55.77     57.33    -28.97     20.00
   14.3536     54.98     57.44    -29.87     20.00
   14.3638     55.55     57.55    -29.41     20.00
   14.3740     57.29     57.66    -27.78     20.00
   14.3841     55.85     57.77    -29.33     20.00
   14.3943     56.54     57.89    -28.75     20.00
   14.4045     55.93     58.00    -29.48     20.00
   14.4146     56.87     58.11    -28.65     20.00
   14.4248     55.51     58.22    -30.12     20.00
   14.4350     56.66     58.34    -29.08     20.00
   14.4451     55.54     58.45    -30.32     20.00
   14.4553     56.81     58.56    -29.16     20.00
   14.4654     56.99     58.68    -29.09     20.00
   14.4756     57.04     58.79    -29.16     20.00
   14.4858     58.15     58.91    -28.16     20.00
   14.4959     57.71     59.02    -28.71     20.00
   14.5061     58.26     59.13    -28.28     20.00
   14.5163     57.30     59.25    -29.36     20.00
   14.5264     59.20     59.36    -27.57     20.00
   14.5366     57.58     59.48    -29.31     20.00
   14.5468     57.54     59.60    -29.46     20.00
   14.5569     57.34     59.71    -29.78     20.00
   14.5671     59.00     59.83    -28.23     20.00
   14.5773     58.67     59.94    -28.68     20.00
   14.5874     58.06     60.06    -29.41     20.00
   14.5976     57.32     60.18    -30.26     20.00
   14.6078     59.64     60.29    -28.06     20.00
   14.6179     58.76     60.41    -29.06     20.00
   14.6281     58.94     60.53    -29.00     20.00
   14.6382     59.51     60.65    -28.54     20.00
   14.6484     59.22     60.77    -28.95     20.00
   14.6586     60.16     60.88    -28.13     20.00
   14.6687     59.46     61.00    -28.95     20.00
   14.6789     58.96     61.12    -29.57     20.00
   14.6891     58.82     61.24    -29.83     20.00
   14.6992     60.31     61.36    -28.46     20.00
   14.7094     60.02     61.48    -28.87     20.00
   14.7196     60.15     61.60    -28.86     20.00
   14.7297     59.27     61.72    -29.86     20.00
   14.7399     59.47     61.84    -29.78     20.00
   14.7501     60.23     61.96    -29.14     20.00
   14.7602     59.32     62.08    -30.17     20.00
   14.7704     62.14     62.20    -27.47     20.00
   14.7805     60.65     62.32    -29.08     20.00
   14.7907     59.72     62.45    -30.13     20.00
   14.8009     62.77     62.57    -27.20     20.00
   14.8110     62.35     62.69    -27.75     20.00
   14.8212     60.77     62.81    -29.45     20.00
   14.8314     62.63     62.93    -27.71     20.00
   14.8415     63.28     63.06    -27.18     20.00
   14.8517     61.98     63.18    -28.61     20.00
   14.8619     61.17     63.30    -29.54     20.00
   14.8720     61.60     63.43    -29.23     20.00
   14.8822     62.77     63.55    -28.19     20.00
   14.8924     61.03     63.68    -30.05     20.00
   14.9025     62.79     63.80    -28.42     20.00
   14.9127     62.64     63.92    -28.69     20.00
   14.9229     62.23     64.05    -29.23     20.00
   14.9330     62.88     64.17    -28.70     20.00
   14.9432     61.91     64.30    -29.80     20.00
   14.9533     62.71     64.42    -29.12     20.00
   14.9635     64.29     64.55    -27.67     20.00
   14.9737     63.35     64.68    -28.73     20.00
   14.9838     64.07     64.80    -28.14     20.00
   14.9940     64.10     64.93    -28.24     20.00
   15.0042     63.18     65.06    -29.28     20.00
   15.0143     65.14     65.18    -27.45     20.00
   15.0245     63.87     65.31    -28.85     20.00
   15.0347     63.58     65.44    -29.26     20.00
   15.0448     63.61     65.57    -29.36     20.00
   15.0550     64.04     65.69    -29.06     20.00
   15.0652     63.26     65.82    -29.97     20.00
   15.0753     64.38     65.95    -28.98     20.00
   15.0855     64.59     66.08    -28.90     20.00
   15.0956     65.29     66.21    -28.32     20.00
   15.1058     63.60     66.34    -30.14     20.00
   15.1160     65.62     66.47    -28.25     20.00
   15.1261     64.97     66.60    -29.03     20.00
   15.1363     64.64     66.73    -29.49     20.00
   15.1465     66.28     66.86    -27.98     20.00
   15.1566     65.86     66.99    -28.53     20.00
   15.1668     66.39     67.12    -28.13     20.00
   15.1770     66.01     67.25    -28.64     20.00
   15.1871     65.20     67.38    -29.58     20.00
   15.1973     67.15     67.51    -27.77     20.00
   15.2075     65.48     67.64    -29.57     20.00
   15.2176     66.43     67.77    -28.75     20.00
   15.2278     67.57     67.91    -27.74     20.00
   15.2380     67.88     68.04    -27.56     20.00
   15.2481     65.96     68.17    -29.62     20.00
   15.2583     66.88     68.30    -28.83     20.00
   15.2684     66.16     68.44    -29.68     20.00
   15.2786     67.60     68.57    -28.38     20.00
   15.2888     68.43     68.70    -27.68     20.00
   15.2989     67.98     68.84    -28.26     20.00
   15.3091     68.42     68.97    -27.96     20.00
   15.3193     67.15     69.11    -29.36     20.00
   15.3294     68.30     69.24    -28.34     20.00
   15.3396     67.93     69.37    -28.85     20.00
   15.3498     66.99     69.51    -29.93     20.00
   15.3599     70.05     69.64    -27.00     20.00
   15.3701     69.19     69.78    -28.00     20.00
   15.3803     68.27     69.92    -29.05     20.00
   15.3904     68.48     70.05    -28.98     20.00
   15.4006     69.04     70.19    -28.55     20.00
   15.4107     69.56     70.32    -28.17     20.00
   15.4209     69.42     70.46    -28.44     20.00
   15.4311     70.32     70.60    -27.68     20.00
   15.4412     70.68     70.73    -27.46     20.00
   15.4514     69.34     70.87    -28.94     20.00
   15.4616     70.90     71.01    -27.51     20.00
   15.4717     70.16     71.14    -28.39     20.00
   15.4819     69.28     71.28    -29.41     20.00
   15.4921     70.51     71.42    -28.32     20.00
   15.5022     70.36     71.56    -28.60     20.00
   15.5124     71.08     71.70    -28.02     20.00
   15.5226     71.25     71.84    -27.99     20.00
   15.5327     71.30     71.98    -28.08     20.00
   15.5429     70.96     72.12    -28.56     20.00
   15.5530     71.32     72.25    -28.34     20.00
   15.5632     71.74     72.39    -28.06     20.00
   15.5734     71.19     72.53    -28.75     20.00
   15.5835     71.63     72.67    -28.45     20.00
   15.5937     71.46     72.81    -28.76     20.00
   15.6039     72.58     72.96    -27.78     20.00
   15.6140     72.59     73.10    -27.91     20.00
   15.6242     72.53     73.24    -28.11     20.00
   15.6344     73.68     73.38    -27.10     20.00
   15.6445     73.90     73.52    -27.03     20.00
   15.6547     73.66     73.66    -27.41     20.00
   15.6649     74.01     73.80    -27.20     20.00
   15.6750     72.27     73.95    -29.08     20.00
   15.6852     74.02     74.09    -27.47     20.00
   15.6954     73.78     74.23    -27.86     20.00
   15.7055     74.01     74.37    -27.77     20.00
   15.7157     73.74     74.52    -28.18     20.00
   15.7258     73.63     74.66    -28.44     20.00
   15.7360     75.82     74.80    -26.39     20.00
   15.7462     75.47     74.95    -26.88     20.00
   15.7563     73.13     75.09    -29.37     20.00
   15.7665     74.04     75.24    -28.60     20.00
   15.7767     75.05     75.38    -27.74     20.00
   15.7868     75.62     75.52    -27.31     20.00
   15.7970     75.24     75.67    -27.84     20.00
   15.8072     75.16     75.82    -28.06     20.00
   15.8173     76.22     75.96    -27.15     20.00
   15.8275     75.56     76.11    -27.95     20.00
   15.8377     76.55     76.25    -27.11     20.00
   15.8478     77.03     76.40    -26.77     20.00
   15.8580     75.92     76.54    -28.03     20.00
   15.8681     76.63     76.69    -27.47     20.00
   15.8783     77.32     76.84    -26.92     20.00
   15.8885     76.18     76.99    -28.21     20.00
   15.8986     78.04     77.13    -26.50     20.00
   15.9088     78.94     77.28    -25.75     20.00
   15.9190     78.82     77.43    -26.01     20.00
   15.9291     77.73     77.57    -27.25     20.00
   15.9393     76.91     77.72    -28.22     20.00
   15.9495     77.98     77.87    -27.30     20.00
   15.9596     78.05     78.02    -27.38     20.00
   15.9698     78.66     78.17    -26.92     20.00
   15.9800     79.06     78.32    -26.66     20.00
   15.9901     80.19     78.47    -25.68     20.00
   16.0003     78.96     78.62    -27.06     20.00
   16.0105     78.48     78.77    -27.69     20.00
   16.0206     78.95     78.92    -27.37     20.00
   16.0308     80.34     79.07    -26.13     20.00
   16.0409     80.05     79.22    -26.57     20.00
   16.0511     79.63     79.37    -27.14     20.00
   16.0613     80.21     79.52    -26.72     20.00
   16.0714     81.63     79.67    -25.45     20.00
   16.0816     80.23     79.82    -27.00     20.00
   16.0918     80.68     79.97    -26.70     20.00
   16.1019     81.63     80.12    -25.90     20.00
   16.1121     82.14     80.28    -25.54     20.00
   16.1223     81.23     80.43    -26.61     20.00
   16.1324     80.55     80.58    -27.44     20.00
   16.1426     81.02     80.73    -27.12     20.00
   16.1528     81.32     80.89    -26.97     20.00
   16.1629     81.54     81.04    -26.91     20.00
   16.1731     83.35     81.19    -25.25     20.00
   16.1832     81.65     81.35    -27.10     20.00
   16.1934     82.85     81.50    -26.06     20.00
   16.2036     82.35     81.66    -26.71     20.00
   16.2137     83.48     81.81    -25.74     20.00
   16.2239     83.46     81.97    -25.91     20.00
   16.2341     83.59     82.12    -25.94     20.00
   16.2442     83.74     82.28    -25.94     20.00
   16.2544     82.98     82.43    -26.86     20.00
   16.2646     85.31     82.59    -24.68     20.00
   16.2747     85.16     82.74    -24.99     20.00
   16.2849     85.05     82.90    -25.26     20.00
   16.2951     84.49     83.06    -25.97     20.00
   16.3052     84.26     83.21    -26.36     20.00
   16.3154     84.57     83.37    -26.21     20.00
   16.3256     83.93     83.53    -27.00     20.00
   16.3357     85.48     83.69    -25.61     20.00
   16.3459     84.97     83.84    -26.28     20.00
   16.3560     86.19     84.00    -25.22     20.00
   16.3662     85.55     84.16    -26.02     20.00
   16.3764     84.73     84.32    -26.99     20.00
   16.3865     86.42     84.48    -25.46     20.00
   16.3967     87.62     84.64    -24.42     20.00
   16.4069     87.06     84.80    -25.14     20.00
   16.4170     88.32     84.96    -24.04     20.00
   16.4272     88.51     85.12    -24.01     20.00
   16.4374     87.40     85.28    -25.28     20.00
   16.4475     88.60     85.44    -24.24     20.00
   16.4577     88.29     85.60    -24.71     20.00
   16.4679     87.99     85.76    -25.18     20.00
   16.4780     89.63     85.92    -23.70     20.00
   16.4882     88.37     86.08    -25.12     20.00
   16.4983     89.28     86.24    -24.37     20.00
   16.5085     89.65     86.41    -24.16     20.00
   16.5187     86.85     86.57    -27.13     20.00
   16.5288     89.55     86.73    -24.59     20.00
   16.5390     89.23     86.90    -25.07     20.00
   16.5492     89.55     87.06    -24.92     20.00
   16.5593     90.05     87.22    -24.58     20.00
   16.5695     90.06     87.39    -24.73     20.00
   16.5797     91.05     87.55    -23.91     20.00
   16.5898     89.96     87.72    -25.16     20.00
   16.6000     89.26     87.88    -26.03     20.00
   16.6102     90.27     88.05    -25.19     20.00
   16.6203     91.29     88.21    -24.33     20.00
   16.6305     92.20     88.38    -23.59     20.00
   16.6407     91.85     88.55    -24.11     20.00
   16.6508     91.37     88.72    -24.75     20.00
   16.6610     92.27     88.88    -24.02     20.00
   16.6711     92.16     89.05    -24.30     20.00
   16.6813     91.51     89.22    -25.11     20.00
   16.6915     93.31     89.39    -23.48     20.00
   16.7016     92.93     89.56    -24.03     20.00
   16.7118     92.59     89.73    -24.54     20.00
   16.7220     94.12     89.90    -23.18     20.00
   16.7321     93.14     90.07    -24.33     20.00
   16.7423     93.09     90.24    -24.55     20.00
   16.7525     94.40     90.41    -23.41     20.00
   16.7626     93.55     90.58    -24.43     20.00
   16.7728     93.59     90.75    -24.57     20.00
   16.7830     95.30     90.92    -23.03     20.00
   16.7931     96.79     91.10    -21.71     20.00
   16.8033     96.09     91.27    -22.59     20.00
   16.8134     95.43     91.44    -23.42     20.00
   16.8236     95.96     91.62    -23.06     20.00
   16.8338     94.55     91.79    -24.65     20.00
   16.8439     97.60     91.97    -21.77     20.00
   16.8541     95.99     92.14    -23.56     20.00
   16.8643     97.37     92.32    -22.36     20.00
   16.8744     97.90     92.49    -22.00     20.00
   16.8846     96.16     92.67    -23.92     20.00
   16.8948     97.74     92.85    -22.52     20.00
   16.9049     97.87     93.03    -22.56     20.00
   16.9151     97.79     93.21    -22.82     20.00
   16.9253     97.93     93.39    -22.86     20.00
   16.9354     96.09     93.57    -24.88     20.00
   16.9456     97.71     93.75    -23.44     20.00
   16.9558     98.09     93.93    -23.25     20.00
   16.9659     97.57     94.11    -23.95     20.00
   16.9761     99.09     94.29    -22.61     20.00
   16.9862     97.95     94.48    -23.93     20.00
   16.9964     99.55     94.66    -22.52     20.00
   17.0066     99.63     94.85    -22.62     20.00
   17.0167     99.91     95.03    -22.53     20.00
   17.0269     99.69     95.22    -22.93     20.00
   17.0371     99.77     95.40    -23.04     20.00
   17.0472     99.57     95.59    -23.43     20.00
   17.0574     98.82     95.78    -24.36     20.00
   17.0676    100.29     95.97    -23.08     20.00
   17.0777     98.57     96.16    -24.99     20.00
   17.0879    101.07     96.35    -22.68     20.00
   17.0981    101.29     96.54    -22.66     20.00
   17.1082    101.01     96.73    -23.13     20.00
   17.1184    102.91     96.93    -21.42     20.00
   17.1285    100.93     97.12    -23.59     20.00
   17.1387    101.45     97.31    -23.27     20.00
   17.1489    104.23     97.51    -20.69     20.00
   17.1590    101.87     97.71    -23.24     20.00
   17.1692    102.65     97.90    -22.66     20.00
   17.1794    102.24     98.10    -23.27     20.00
   17.1895    102.24     98.30    -23.47     20.00
   17.1997    101.96     98.51    -23.95     20.00
   17.2099    102.26     98.71    -23.85     20.00
   17.2200    101.26     98.91    -25.06     20.00
   17.2302    103.05     99.12    -23.47     20.00
   17.2404    103.23     99.32    -23.50     20.00
   17.2505    102.85     99.53    -24.08     20.00
   17.2607    104.44     99.74    -22.70     20.00
   17.2709    104.95     99.95    -22.40     20.00
   17.2810    103.90    100.16    -23.66     20.00
   17.2912    103.93    100.37    -23.85     20.00
   17.3013    105.04    100.59    -22.95     20.00
   17.3115    105.57    100.80    -22.64     20.00
   17.3217    104.66    101.02    -23.77     20.00
   17.3318    105.98    101.24    -22.66     20.00
   17.3420    104.91    101.46    -23.96     20.00
   17.3522    106.50    101.68    -22.59     20.00
   17.3623    105.61    101.91    -23.70     20.00
   17.3725    105.77    102.14    -23.77     20.00
   17.3827    106.14    102.37    -23.63     20.00
   17.3928    107.79    102.59    -22.21     20.00
   17.4030    107.69    102.83    -22.54     20.00
   17.4132    107.90    103.07    -22.57     20.00
   17.4233    106.67    103.30    -24.04     20.00
   17.4335    106.63    103.54    -24.32     20.00
   17.4436    109.79    103.79    -21.40     20.00
   17.4538    106.05    104.03    -25.39     20.00
   17.4640    108.46    104.28    -23.23     20.00
   17.4741    108.73    104.53    -23.21     20.00
   17.4843    109.40    104.79    -22.80     20.00
   17.4945    108.71    105.05    -23.75     20.00
   17.5046    111.54    105.31    -21.18     20.00
   17.5148    109.95    105.58    -23.04     20.00
   17.5250    110.21    105.85    -23.05     20.00
   17.5351    110.65    106.13    -22.88     20.00
   17.5453    112.43    106.41    -21.38     20.00
   17.5555    112.28    106.69    -21.82     20.00
   17.5656    112.76    106.98    -21.63     20.00
   17.5758    112.71    107.28    -21.97     20.00
   17.5859    113.18    107.57    -21.80     20.00
   17.5961    113.57    107.88    -21.72     20.00
   17.6063    114.76    108.20    -20.84     20.00
   17.6164    112.97    108.51    -22.95     20.00
   17.6266    116.15    108.84    -20.10     20.00
   17.6368    115.26    109.18    -21.32     20.00
   17.6469    115.34    109.52    -21.59     20.00
   17.6571    115.47    109.87    -21.81     20.00
   17.6673    117.17    110.23    -20.47     20.00
   17.6774    115.86    110.60    -22.15     20.00
   17.6876    116.03    110.98    -22.36     20.00
   17.6978    117.35    111.37    -21.43     20.00
   17.7079    118.79    111.77    -20.39     20.00
   17.7181    117.99    112.19    -21.61     20.00
   17.7283    118.62    112.62    -21.40     20.00
   17.7384    116.77    113.05    -23.69     20.00
   17.7486    117.67    113.51    -23.25     20.00
   17.7587    120.70    113.98    -20.68     20.00
   17.7689    121.09    114.46    -20.78     20.00
   17.7791    121.19    114.97    -21.18     20.00
   17.7892    121.96    115.48    -20.93     20.00
   17.7994    121.61    116.02    -21.82     20.00
   17.8096    121.63    116.58    -22.36     20.00
   17.8197    124.46    117.16    -20.10     20.00
   17.8299    122.74    117.76    -22.43     20.00
   17.8401    124.49    118.38    -21.30     20.00
   17.8502    124.80    119.03    -21.63     20.00
   17.8604    125.78    119.70    -21.33     20.00
   17.8706    125.79    120.40    -22.02     20.00
   17.8807    127.23    121.12    -21.30     20.00
   17.8909    128.00    121.88    -21.28     20.00
   17.9010    129.33    122.65    -20.73     20.00
   17.9112    128.62    123.47    -22.26     20.00
   17.9214    129.28    124.32    -22.45     20.00
   17.9315    130.76    125.20    -21.84     20.00
   17.9417    132.71    126.12    -20.81     20.00
   17.9519    132.63    127.07    -21.85     20.00
   17.9620    133.23    128.06    -22.23     20.00
   17.9722    133.96    129.09    -22.53     20.00
   17.9824    136.23    130.16    -21.34     20.00
   17.9925    135.29    131.27    -23.38     20.00
   18.0027    137.74    132.43    -22.09     20.00
   18.0129    138.59    133.63    -22.45     20.00
   18.0230    137.70    134.87    -24.57     20.00
   18.0332    139.96    136.16    -23.61     20.00
   18.0434    141.64    137.51    -23.27     20.00
   18.0535    144.11    138.89    -22.19     20.00
   18.0637    146.01    140.34    -21.73     20.00
   18.0738    145.54    141.82    -23.68     20.00
   18.0840    145.82    143.37    -24.95     20.00
   18.0942    148.85    144.97    -23.53     20.00
   18.1043    149.90    146.61    -24.12     20.00
   18.1145    150.45    148.33    -25.28     20.00
   18.1247    153.61    150.10    -23.89     20.00
   18.1348    153.75    151.91    -25.56     20.00
   18.1450    155.09    153.79    -26.10     20.00
   18.1552    157.60    155.73    -25.53     20.00
   18.1653    158.26    157.71    -26.85     20.00
   18.1755    159.88    159.76    -27.29     20.00
   18.1857    162.67    161.88    -26.61     20.00
   18.1958    161.86    164.02    -29.57     20.00
   18.2060    163.43    166.25    -30.23     20.00
   18.2161    166.96    168.51    -28.96     20.00
   18.2263    169.01    170.85    -29.25     20.00
   18.2365    169.72    173.24    -30.93     20.00
   18.2466    175.70    175.66    -27.37     20.00
   18.2568    176.24    178.16    -29.33     20.00
   18.2670    176.93    180.71    -31.19     20.00
   18.2771    182.17    183.28    -28.52     20.00
   18.2873    183.68    185.93    -29.65     20.00
   18.2975    185.03    188.61    -30.99     20.00
   18.3076    188.55    191.32    -30.17     20.00
   18.3178    189.86    194.08    -31.63     20.00
   18.3280    192.46    196.89    -31.83     20.00
   18.3381    197.98    199.69    -29.12     20.00
   18.3483    200.09    202.55    -29.87     20.00
   18.3585    201.83    205.44    -31.02     20.00
   18.3686    206.46    208.32    -29.26     20.00
   18.3788    208.70    211.23    -29.94     20.00
   18.3889    209.86    214.13    -31.68     20.00
   18.3991    215.84    217.06    -28.63     20.00
   18.4093    215.77    219.99    -31.62     20.00
   18.4194    217.83    222.87    -32.45     20.00
   18.4296    223.89    225.77    -29.29     20.00
   18.4398    225.85    228.64    -30.20     20.00
   18.4499    228.90    231.45    -29.96     20.00
   18.4601    233.23    234.25    -28.43     20.00
   18.4703    234.36    237.00    -30.05     20.00
   18.4804    234.58    239.66    -32.49     20.00
   18.4906    242.44    242.28    -27.25     20.00
   18.5008    243.47    244.82    -28.76     20.00
   18.5109    247.03    247.25    -27.63     20.00
   18.5211    250.39    249.60    -26.62     20.00
   18.5312    250.23    251.82    -29.00     20.00
   18.5414    254.05    253.94    -27.30     20.00
   18.5516    254.12    255.93    -29.22     20.00
   18.5617    257.68    257.77    -27.49     20.00
   18.5719    259.25    259.47    -27.62     20.00
   18.5821    263.80    261.01    -24.62     20.00
   18.5922    263.12    262.37    -26.66     20.00
   18.6024    263.81    263.57    -27.17     20.00
   18.6126    267.18    264.59    -24.81     20.00
   18.6227    269.63    265.41    -23.18     20.00
   18.6329    269.05    266.04    -24.40     20.00
   18.6431    271.76    266.48    -22.13     20.00
   18.6532    269.99    266.72    -24.13     20.00
   18.6634    271.79    266.76    -22.37     20.00
   18.6736    270.62    266.60    -23.38     20.00
   18.6837    269.68    266.24    -23.97     20.00
   18.6939    269.55    265.69    -23.55     20.00
   18.7040    267.50    264.95    -24.86     20.00
   18.7142    266.90    264.03    -24.53     20.00
   18.7244    266.27    262.92    -24.05     20.00
   18.7345    264.96    261.65    -24.10     20.00
   18.7447    265.15    260.21    -22.46     20.00
   18.7549    260.32    258.61    -25.69     20.00
   18.7650    260.80    256.88    -23.49     20.00
   18.7752    260.57    255.00    -21.83     20.00
   18.7854    257.88    252.99    -22.52     20.00
   18.7955    254.55    250.89    -23.75     20.00
   18.8057    251.52    248.66    -24.55     20.00
   18.8159    247.58    246.34    -26.17     20.00
   18.8260    246.50    243.96    -24.86     20.00
   18.8362    243.31    241.47    -25.57     20.00
   18.8463    238.98    238.95    -27.38     20.00
   18.8565    235.51    236.35    -28.25     20.00
   18.8667    232.40    233.70    -28.71     20.00
   18.8768    230.93    231.05    -27.52     20.00
   18.8870    226.65    228.33    -29.09     20.00
   18.8972    225.73    225.59    -27.27     20.00
   18.9073    221.58    222.87    -28.70     20.00
   18.9175    218.79    220.11    -28.73     20.00
   18.9277    215.51    217.35    -29.25     20.00
   18.9378    211.96    214.63    -30.07     20.00
   18.9480    211.26    211.89    -28.03     20.00
   18.9582    206.90    209.16    -29.66     20.00
   18.9683    199.83    206.48    -34.06     20.00
   18.9785    198.46    203.80    -32.75     20.00
   18.9887    197.76    201.15    -30.80     20.00
   18.9988    193.63    198.56    -32.33     20.00
   19.0090    193.09    195.98    -30.29     20.00
   19.0191    187.65    193.46    -33.22     20.00
   19.0293    184.82    190.96    -33.55     20.00
   19.0395    183.85    188.51    -32.07     20.00
   19.0496    180.80    186.13    -32.73     20.00
   19.0598    178.59    183.77    -32.59     20.00
   19.0700    177.12    181.47    -31.75     20.00
   19.0801    173.91    179.24    -32.73     20.00
   19.0903    173.40    177.04    -31.04     20.00
   19.1005    172.02    174.89    -30.28     20.00
   19.1106    166.76    172.83    -33.47     20.00
   19.1208    165.48    170.80    -32.72     20.00
   19.1310    164.77    168.82    -31.46     20.00
   19.1411    161.99    166.92    -32.34     20.00
   19.1513    160.63    165.06    -31.84     20.00
   19.1614    159.11    163.28    -31.58     20.00
   19.1716    157.50    161.53    -31.44     20.00
   19.1818    156.88    159.85    -30.37     20.00
   19.1919    154.91    158.23    -30.73     20.00
   19.2021    154.91    156.66    -29.15     20.00
   19.2123    150.67    155.14    -31.88     20.00
   19.2224    151.72    153.69    -29.38     20.00
   19.2326    150.49    152.28    -29.20     20.00
   19.2428    149.32    150.93    -29.01     20.00
   19.2529    146.54    149.64    -30.50     20.00
   19.2631    146.02    148.38    -29.77     20.00
   19.2733    144.39    147.18    -30.20     20.00
   19.2834    141.58    146.04    -31.87     20.00
   19.2936    143.62    144.94    -28.72     20.00
   19.3038    141.77    143.88    -29.52     20.00
   19.3139    141.79    142.88    -28.50     20.00
   19.3241    141.03    141.91    -28.29     20.00
   19.3342    137.38    141.00    -31.02     20.00
   19.3444    139.43    140.11    -28.09     20.00
   19.3546    138.15    139.27    -28.53     20.00
   19.3647    137.27    138.48    -28.61     20.00
   19.3749    135.95    137.71    -29.17     20.00
   19.3851    135.78    136.98    -28.61     20.00
   19.3952    134.13    136.30    -29.57     20.00
   19.4054    135.59    135.64    -27.45     20.00
   19.4156    133.17    135.01    -29.25     20.00
   19.4257    133.09    134.42    -28.74     20.00
   19.4359    132.33    133.85    -28.93     20.00
   19.4461    133.83    133.32    -26.89     20.00
   19.4562    131.98    132.81    -28.24     20.00
   19.4664    133.17    132.33    -26.57     20.00
   19.4765    132.45    131.88    -26.83     20.00
   19.4867    128.93    131.44    -29.92     20.00
   19.4969    130.10    131.03    -28.34     20.00
   19.5070    129.05    130.65    -29.01     20.00
   19.5172    128.44    130.29    -29.25     20.00
   19.5274    128.43    129.94    -28.92     20.00
   19.5375    129.84    129.62    -27.18     20.00
   19.5477    127.43    129.31    -29.29     20.00
   19.5579    128.49    129.02    -27.94     20.00
   19.5680    127.25    128.75    -28.91     20.00
   19.5782    128.62    128.50    -27.29     20.00
   19.5884    127.40    128.26    -28.27     20.00
   19.5985    125.15    128.04    -30.30     20.00
   19.6087    125.87    127.83    -29.37     20.00
   19.6188    126.22    127.64    -28.83     20.00
   19.6290    126.21    127.46    -28.66     20.00
   19.6392    126.97    127.29    -27.73     20.00
   19.6493    125.81    127.14    -28.74     20.00
   19.6595    125.76    127.00    -28.65     20.00
   19.6697    124.61    126.87    -29.67     20.00
   19.6798    125.42    126.76    -28.74     20.00
   19.6900    125.32    126.65    -28.74     20.00
   19.7002    123.74    126.56    -30.22     20.00
   19.7103    123.86    126.48    -30.02     20.00
   19.7205    124.85    126.41    -28.96     20.00
   19.7307    123.14    126.35    -30.61     20.00
   19.7408    125.05    126.30    -28.66     20.00
   19.7510    124.31    126.26    -29.36     20.00
   19.7612    125.31    126.24    -28.34     20.00
   19.7713    124.23    126.23    -29.40     20.00
   19.7815    124.07    126.22    -29.56     20.00
   19.7916    124.47    126.23    -29.17     20.00
   19.8018    125.02    126.25    -28.64     20.00
   19.8120    123.90    126.28    -29.79     20.00
   19.8221    124.37    126.32    -29.36     20.00
   19.8323    124.08    126.37    -29.70     20.00
   19.8425    124.84    126.44    -29.01     20.00
   19.8526    122.71    126.52    -31.21     20.00
   19.8628    124.29    126.61    -29.72     20.00
   19.8730    124.77    126.71    -29.34     20.00
   19.8831    123.00    126.82    -31.23     20.00
   19.8933    124.38    126.95    -29.97     20.00
   19.9035    125.34    127.08    -29.15     20.00
   19.9136    125.04    127.23    -29.60     20.00
   19.9238    125.24    127.40    -29.56     20.00
   19.9339    124.68    127.57    -30.30     20.00
   19.9441    125.30    127.76    -29.87     20.00
   19.9543    127.90    127.97    -27.47     20.00
   19.9644    125.79    128.18    -29.80     20.00
   19.9746    125.37    128.41    -30.45     20.00
   19.9848    126.68    128.66    -29.39     20.00
   19.9949    128.05    128.91    -28.27     20.00
   20.0051    127.35    129.19    -29.24     20.00
   20.0153    127.63    129.47    -29.25     20.00
   20.0254    128.99    129.77    -28.19     20.00
   20.0356    126.05    130.08    -31.44     20.00
   20.0458    127.97    130.41    -29.84     20.00
   20.0559    128.25    130.75    -29.90     20.00
   20.0661    127.78    131.10    -30.73     20.00
   20.0763    129.21    131.47    -29.66     20.00
   20.0864    127.98    131.84    -31.27     20.00
   20.0966    126.87    132.23    -32.77     20.00
   20.1067    130.26    132.63    -29.78     20.00
   20.1169    128.55    133.05    -31.90     20.00
   20.1271    129.91    133.48    -30.97     20.00
   20.1372    130.10    133.91    -31.21     20.00
   20.1474    130.39    134.36    -31.37     20.00
   20.1576    130.41    134.81    -31.81     20.00
   20.1677    132.48    135.28    -30.20     20.00
   20.1779    130.27    135.75    -32.89     20.00
   20.1881    132.10    136.23    -31.54     20.00
   20.1982    134.02    136.72    -30.10     20.00
   20.2084    133.71    137.21    -30.90     20.00
   20.2186    131.57    137.71    -33.54     20.00
   20.2287    135.12    138.20    -30.49     20.00
   20.2389    134.26    138.70    -31.85     20.00
   20.2490    133.62    139.20    -32.99     20.00
   20.2592    135.02    139.70    -32.09     20.00
   20.2694    135.46    140.20    -32.14     20.00
   20.2795    135.27    140.68    -32.82     20.00
   20.2897    136.49    141.17    -32.09     20.00
   20.2999    136.60    141.65    -32.45     20.00
   20.3100    135.49    142.11    -34.03     20.00
   20.3202    137.54    142.56    -32.43     20.00
   20.3304    139.26    143.00    -31.15     20.00
   20.3405    137.30    143.42    -33.53     20.00
   20.3507    139.79    143.82    -31.44     20.00
   20.3609    139.18    144.20    -32.43     20.00
   20.3710    140.10    144.55    -31.86     20.00
   20.3812    141.14    144.88    -31.15     20.00
   20.3914    142.30    145.18    -30.29     20.00
   20.4015    139.62    145.45    -33.23     20.00
   20.4117    142.38    145.68    -30.71     20.00
   20.4218    142.84    145.88    -30.44     20.00
   20.4320    140.98    146.04    -32.47     20.00
   20.4422    143.36    146.16    -30.21     20.00
   20.4523    143.82    146.24    -29.83     20.00
   20.4625    144.49    146.29    -29.20     20.00
   20.4727    143.11    146.29    -30.58     20.00
   20.4828    145.55    146.24    -28.10     20.00
   20.4930    142.62    146.16    -30.94     20.00
   20.5032    145.15    146.03    -28.28     20.00
   20.5133    144.50    145.86    -28.76     20.00
   20.5235    146.35    145.64    -26.70     20.00
   20.5337    147.08    145.39    -25.72     20.00
   20.5438    146.02    145.10    -26.49     20.00
   20.5540    145.23    144.77    -26.95     20.00
   20.5641    147.32    144.41    -24.49     20.00
   20.5743    148.90    144.01    -22.52     20.00
   20.5845    145.81    143.58    -25.17     20.00
   20.5946    147.40    143.12    -23.13     20.00
   20.6048    146.32    142.64    -23.72     20.00
   20.6150    145.21    142.12    -24.32     20.00
   20.6251    145.93    141.60    -23.07     20.00
   20.6353    146.49    141.04    -21.96     20.00
   20.6455    144.65    140.47    -23.23     20.00
   20.6556    146.79    139.89    -20.51     20.00
   20.6658    147.69    139.29    -19.01     20.00
   20.6760    144.07    138.68    -22.02     20.00
   20.6861    145.70    138.07    -19.77     20.00
   20.6963    144.71    137.44    -20.14     20.00
   20.7065    143.81    136.81    -20.41     20.00
   20.7166    143.35    136.18    -20.24     20.00
   20.7268    144.12    135.55    -18.83     20.00
   20.7369    141.91    134.92    -20.42     20.00
   20.7471    143.13    134.29    -18.56     20.00
   20.7573    143.25    133.66    -17.81     20.00
   20.7674    141.18    133.04    -19.26     20.00
   20.7776    141.16    132.42    -18.66     20.00
   20.7878    141.24    131.80    -17.97     20.00
   20.7979    138.59    131.20    -20.02     20.00
   20.8081    140.04    130.60    -17.97     20.00
   20.8183    137.05    130.01    -20.37     20.00
   20.8284    139.01    129.44    -17.84     20.00
   20.8386    139.48    128.87    -16.80     20.00
   20.8488    137.59    128.31    -18.13     20.00
   20.8589    135.07    127.77    -20.11     20.00
   20.8691    137.45    127.24    -17.20     20.00
   20.8792    134.79    126.72    -19.34     20.00
   20.8894    132.60    126.22    -21.02     20.00
   20.8996    135.57    125.72    -17.56     20.00
   20.9097    132.21    125.25    -20.44     20.00
   20.9199    131.19    124.78    -21.00     20.00
   20.9301    132.11    124.33    -19.62     20.00
   20.9402    129.89    123.89    -21.41     20.00
   20.9504    129.07    123.47    -21.81     20.00
   20.9606    131.85    123.06    -18.62     20.00
   20.9707    129.58    122.67    -20.50     20.00
   20.9809    127.71    122.29    -21.99     20.00
   20.9911    128.20    121.93    -21.13     20.00
   21.0012    127.90    121.58    -21.08     20.00
   21.0114    125.98    121.24    -22.67     20.00
   21.0216    124.66    120.92    -23.67     20.00
   21.0317    124.68    120.62    -23.34     20.00
   21.0419    125.18    120.32    -22.55     20.00
   21.0520    123.97    120.05    -23.48     20.00
   21.0622    124.32    119.78    -22.87     20.00
   21.0724    124.65    119.53    -22.29     20.00
   21.0825    121.90    119.30    -24.81     20.00
   21.0927    120.33    119.08    -26.15     20.00
   21.1029    119.69    118.87    -26.58     20.00
   21.1130    119.88    118.67    -26.20     20.00
   21.1232    120.78    118.49    -25.12     20.00
   21.1334    119.62    118.32    -26.11     20.00
   21.1435    120.73    118.17    -24.84     20.00
   21.1537    118.87    118.02    -26.56     20.00
   21.1639    117.51    117.89    -27.79     20.00
   21.1740    117.95    117.78    -27.23     20.00
   21.1842    116.29    117.67    -28.79     20.00
   21.1943    115.24    117.58    -29.74     20.00
   21.2045    116.24    117.50    -28.66     20.00
   21.2147    116.45    117.43    -28.38     20.00
   21.2248    115.03    117.37    -29.74     20.00
   21.2350    115.43    117.32    -29.30     20.00
   21.2452    115.50    117.29    -29.19     20.00
   21.2553    113.74    117.27    -30.93     20.00
   21.2655    114.35    117.26    -30.31     20.00
   21.2757    113.51    117.26    -31.15     20.00
   21.2858    112.64    117.27    -32.04     20.00
   21.2960    112.26    117.29    -32.44     20.00
   21.3062    114.74    117.33    -29.99     20.00
   21.3163    114.76    117.38    -30.02     20.00
   21.3265    113.74    117.43    -31.10     20.00
   21.3366    113.40    117.50    -31.51     20.00
   21.3468    112.07    117.59    -32.92     20.00
   21.3570    112.77    117.68    -32.31     20.00
   21.3671    112.76    117.78    -32.43     20.00
   21.3773    110.79    117.90    -34.51     20.00
   21.3875    111.90    118.03    -33.53     20.00
   21.3976    112.71    118.17    -32.86     20.00
   21.4078    111.76    118.32    -33.96     20.00
   21.4180    112.14    118.48    -33.75     20.00
   21.4281    113.05    118.66    -33.01     20.00
   21.4383    111.16    118.85    -35.09     20.00
   21.4485    110.97    119.05    -35.48     20.00
   21.4586    111.24    119.26    -35.42     20.00
   21.4688    110.84    119.48    -36.05     20.00
   21.4790    113.16    119.72    -33.97     20.00
   21.4891    112.34    119.97    -35.04     20.00
   21.4993    110.90    120.24    -36.74     20.00
   21.5094    110.68    120.51    -37.24     20.00
   21.5196    112.53    120.80    -35.68     20.00
   21.5298    111.55    121.10    -36.96     20.00
   21.5399    113.37    121.42    -35.45     20.00
   21.5501    112.62    121.75    -36.54     20.00
   21.5603    112.70    122.09    -36.80     20.00
   21.5704    113.62    122.45    -36.23     20.00
   21.5806    112.76    122.82    -37.47     20.00
   21.5908    111.50    123.21    -39.11     20.00
   21.6009    114.00    123.60    -37.01     20.00
   21.6111    114.46    124.01    -36.96     20.00
   21.6213    114.01    124.44    -37.84     20.00
   21.6314    112.59    124.88    -39.70     20.00
   21.6416    112.54    125.34    -40.20     20.00
   21.6517    114.20    125.80    -39.01     20.00
   21.6619    115.35    126.29    -38.34     20.00
   21.6721    116.63    126.79    -37.56     20.00
   21.6822    115.36    127.29    -39.34     20.00
   21.6924    116.93    127.82    -38.30     20.00
   21.7026    116.60    128.36    -39.17     20.00
   21.7127    116.65    128.91    -39.67     20.00
   21.7229    118.95    129.48    -37.94     20.00
   21.7331    118.99    130.07    -38.48     20.00
   21.7432    118.75    130.66    -39.32     20.00
   21.7534    120.92    131.27    -37.76     20.00
   21.7636    121.47    131.90    -37.83     20.00
   21.7737    119.12    132.53    -40.82     20.00
   21.7839    122.32    133.18    -38.27     20.00
   21.7941    124.33    133.85    -36.93     20.00
   21.8042    122.57    134.52    -39.36     20.00
   21.8144    125.29    135.21    -37.33     20.00
   21.8245    125.81    135.91    -37.50     20.00
   21.8347    125.58    136.62    -38.45     20.00
   21.8449    126.96    137.35    -37.80     20.00
   21.8550    126.75    138.08    -38.74     20.00
   21.8652    127.18    138.83    -39.06     20.00
   21.8754    128.34    139.59    -38.65     20.00
   21.8855    127.55    140.35    -40.21     20.00
   21.8957    129.47    141.13    -39.07     20.00
   21.9059    131.74    141.92    -37.58     20.00
   21.9160    131.82    142.71    -38.29     20.00
   21.9262    131.74    143.51    -39.18     20.00
   21.9364    133.42    144.32    -38.31     20.00
   21.9465    133.95    145.13    -38.59     20.00
   21.9567    134.65    145.95    -38.71     20.00
   21.9668    137.88    146.77    -36.30     20.00
   21.9770    137.63    147.60    -37.38     20.00
   21.9872    136.75    148.44    -39.10     20.00
   21.9973    138.71    149.27    -37.96     20.00
   22.0075    140.73    150.11    -36.78     20.00
   22.0177    139.25    150.95    -39.10     20.00
   22.0278    140.19    151.78    -38.99     20.00
   22.0380    142.04    152.61    -37.98     20.00
   22.0482    140.82    153.45    -40.03     20.00
   22.0583    145.15    154.27    -36.52     20.00
   22.0685    145.02    155.09    -37.48     20.00
   22.0787    144.27    155.91    -39.05     20.00
   22.0888    144.62    156.71    -39.50     20.00
   22.0990    148.45    157.51    -36.47     20.00
   22.1092    147.96    158.30    -37.75     20.00
   22.1193    148.43    159.07    -38.05     20.00
   22.1295    151.48    159.83    -35.76     20.00
   22.1396    149.91    160.57    -38.07     20.00
   22.1498    150.15    161.30    -38.56     20.00
   22.1600    152.94    162.01    -36.48     20.00
   22.1701    152.01    162.70    -38.09     20.00
   22.1803    154.66    163.36    -36.11     20.00
   22.1905    155.69    164.01    -35.72     20.00
   22.2006    157.12    164.62    -34.91     20.00
   22.2108    156.23    165.21    -36.39     20.00
   22.2210    159.70    165.77    -33.48     20.00
   22.2311    157.01    166.30    -36.69     20.00
   22.2413    160.75    166.80    -33.45     20.00
   22.2515    162.35    167.26    -32.32     20.00
   22.2616    159.99    167.69    -35.10     20.00
   22.2718    162.66    168.08    -32.82     20.00
   22.2819    163.94    168.43    -31.89     20.00
   22.2921    162.95    168.74    -33.19     20.00
   22.3023    166.06    169.01    -30.36     20.00
   22.3124    166.96    169.23    -29.68     20.00
   22.3226    165.60    169.42    -31.23     20.00
   22.3328    166.30    169.56    -30.66     20.00
   22.3429    170.16    169.65    -26.90     20.00
   22.3531    168.20    169.70    -28.90     20.00
   22.3633    169.22    169.70    -27.88     20.00
   22.3734    169.34    169.65    -27.72     20.00
   22.3836    168.29    169.56    -28.67     20.00
   22.3938    171.30    169.41    -25.52     20.00
   22.4039    168.91    169.22    -27.72     20.00
   22.4141    171.11    168.98    -25.28     20.00
   22.4243    172.63    168.70    -23.47     20.00
   22.4344    172.34    168.37    -23.43     20.00
   22.4446    169.60    167.99    -25.79     20.00
   22.4547    170.56    167.56    -24.41     20.00
   22.4649    172.44    167.09    -22.06     20.00
   22.4751    170.80    166.58    -23.18     20.00
   22.4852    172.49    166.02    -20.94     20.00
   22.4954    170.23    165.43    -22.60     20.00
   22.5056    171.15    164.78    -21.04     20.00
   22.5157    170.11    164.11    -21.41     20.00
   22.5259    172.00    163.40    -18.80     20.00
   22.5361    166.96    162.64    -23.09     20.00
   22.5462    171.23    161.86    -18.04     20.00
   22.5564    168.57    161.04    -19.88     20.00
   22.5666    166.21    160.19    -21.39     20.00
   22.5767    167.86    159.32    -18.87     20.00
   22.5869    166.40    158.42    -19.42     20.00
   22.5970    164.83    157.49    -20.07     20.00
   22.6072    166.85    156.53    -17.09     20.00
   22.6174    163.71    155.55    -19.25     20.00
   22.6275    162.57    154.56    -19.40     20.00
   22.6377    165.31    153.54    -15.64     20.00
   22.6479    162.85    152.51    -17.06     20.00
   22.6580    162.46    151.46    -16.41     20.00
   22.6682    161.68    150.40    -16.12     20.00
   22.6784    161.40    149.32    -15.32     20.00
   22.6885    158.10    148.24    -17.54     20.00
   22.6987    160.93    147.14    -13.61     20.00
   22.7089    156.39    146.03    -17.04     20.00
   22.7190    156.09    144.92    -16.24     20.00
   22.7292    157.77    143.80    -13.44     20.00
   22.7394    154.19    142.68    -15.89     20.00
   22.7495    152.60    141.56    -16.37     20.00
   22.7597    152.84    140.43    -15.00     20.00
   22.7698    151.66    139.31    -15.06     20.00
   22.7800    149.51    138.18    -16.07     20.00
   22.7902    150.95    137.05    -13.50     20.00
   22.8003    147.68    135.93    -15.66     20.00
   22.8105    146.93    134.81    -15.28     20.00
   22.8207    144.97    133.69    -16.12     20.00
   22.8308    145.95    132.58    -14.04     20.00
   22.8410    140.81    131.47    -18.07     20.00
   22.8512    143.04    130.37    -14.74     20.00
   22.8613    141.60    129.28    -15.09     20.00
   22.8715    139.90    128.20    -15.70     20.00
   22.8817    141.03    127.11    -13.49     20.00
   22.8918    141.07    126.05    -12.39     20.00
   22.9020    138.65    124.99    -13.75     20.00
   22.9121    135.85    123.95    -15.50     20.00
   22.9223    135.88    122.91    -14.43     20.00
   22.9325    132.52    121.88    -16.76     20.00
   22.9426    132.92    120.87    -15.35     20.00
   22.9528    131.40    119.86    -15.86     20.00
   22.9630    130.26    118.86    -16.01     20.00
   22.9731    129.82    117.89    -15.47     20.00
   22.9833    129.10    116.91    -15.22     20.00
   22.9935    129.46    115.95    -13.90     20.00
   23.0036    126.89    115.02    -15.53     20.00
   23.0138    125.49    114.09    -16.00     20.00
   23.0240    124.53    113.17    -16.04     20.00
   23.0341    122.27    112.27    -17.40     20.00
   23.0443    121.20    111.38    -17.58     20.00
   23.0545    121.77    110.50    -16.13     20.00
   23.0646    120.32    109.64    -16.73     20.00
   23.0748    118.01    108.79    -18.19     20.00
   23.0849    118.97    107.96    -16.40     20.00
   23.0951    118.26    107.14    -16.29     20.00
   23.1053    115.91    106.33    -17.83     20.00
   23.1154    115.80    105.55    -17.15     20.00
   23.1256    115.10    104.77    -17.07     20.00
   23.1358    113.45    104.00    -17.96     20.00
   23.1459    111.34    103.25    -19.32     20.00
   23.1561    112.76    102.52    -17.16     20.00
   23.1663    110.20    101.79    -19.00     20.00
   23.1764    108.99    101.09    -19.50     20.00
   23.1866    109.72    100.39    -18.08     20.00
   23.1968    108.30     99.71    -18.81     20.00
   23.2069    108.39     99.04    -18.06     20.00
   23.2171    107.51     98.39    -18.28     20.00
   23.2272    105.26     97.75    -19.90     20.00
   23.2374    104.32     97.12    -20.21     20.00
   23.2476    104.85     96.50    -19.06     20.00
   23.2577    104.12     95.90    -19.19     20.00
   23.2679    103.59     95.31    -19.13     20.00
   23.2781    102.48     94.73    -19.66     20.00
   23.2882    102.01     94.17    -19.56     20.00
   23.2984    102.41     93.61    -18.61     20.00
   23.3086    100.16     93.07    -20.31     20.00
   23.3187     99.06     92.54    -20.89     20.00
   23.3289    100.23     92.02    -19.19     20.00
   23.3391     98.02     91.51    -20.89     20.00
   23.3492     96.24     91.01    -22.18     20.00
   23.3594     96.15     90.52    -21.78     20.00
   23.3695     97.32     90.05    -20.14     20.00
   23.3797     95.05     89.58    -21.94     20.00
   23.3899     95.90     89.12    -20.63     20.00
   23.4000     94.80     88.68    -21.29     20.00
   23.4102     92.83     88.24    -22.82     20.00
   23.4204     93.52     87.81    -21.70     20.00
   23.4305     93.01     87.40    -21.79     20.00
   23.4407     91.59     86.98    -22.80     20.00
   23.4509     91.44     86.58    -22.55     20.00
   23.4610     90.63     86.19    -22.97     20.00
   23.4712     90.04     85.80    -23.17     20.00
   23.4814     89.95     85.43    -22.88     20.00
   23.4915     88.59     85.06    -23.87     20.00
   23.5017     88.80     84.70    -23.30     20.00
   23.5119     88.91     84.34    -22.84     20.00
   23.5220     88.20     84.00    -23.20     20.00
   23.5322     87.57     83.65    -23.49     20.00
   23.5423     86.82     83.32    -23.91     20.00
   23.5525     86.00     82.99    -24.40     20.00
   23.5627     84.07     82.67    -26.01     20.00
   23.5728     84.42     82.36    -25.35     20.00
   23.5830     83.73     82.05    -25.73     20.00
   23.5932     84.83     81.75    -24.32     20.00
   23.6033     82.97     81.45    -25.89     20.00
   23.6135     83.35     81.16    -25.21     20.00
   23.6237     81.91     80.87    -26.37     20.00
   23.6338     82.87     80.59    -25.13     20.00
   23.6440     81.98     80.31    -25.74     20.00
   23.6542     80.50     80.04    -26.94     20.00
   23.6643     80.71     79.77    -26.47     20.00
   23.6745     81.48     79.51    -25.43     20.00
   23.6846     79.83     79.25    -26.83     20.00
   23.6948     80.07     79.00    -26.33     20.00
   23.7050     79.84     78.74    -26.31     20.00
   23.7151     77.60     78.50    -28.30     20.00
   23.7253     77.06     78.25    -28.60     20.00
   23.7355     76.65     78.01    -28.77     20.00
   23.7456     77.54     77.78    -27.64     20.00
   23.7558     77.17     77.54    -27.78     20.00
   23.7660     76.20     77.31    -28.52     20.00
   23.7761     75.82     77.09    -28.67     20.00
   23.7863     76.04     76.86    -28.23     20.00
   23.7965     75.49     76.64    -28.56     20.00
   23.8066     76.45     76.43    -27.38     20.00
   23.8168     75.33     76.21    -28.28     20.00
   23.8270     75.48     76.00    -27.92     20.00
   23.8371     74.43     75.79    -28.76     20.00
   23.8473     73.38     75.58    -29.60     20.00
   23.8574     73.16     75.37    -29.62     20.00
   23.8676     73.11     75.17    -29.46     20.00
   23.8778     73.36     74.97    -29.01     20.00
   23.8879     72.84     74.77    -29.34     20.00
   23.8981     72.38     74.57    -29.60     20.00
   23.9083     72.07     74.38    -29.71     20.00
   23.9184     72.09     74.18    -29.50     20.00
   23.9286     72.28     73.99    -29.12     20.00
   23.9388     72.13     73.80    -29.08     20.00
   23.9489     70.87     73.61    -30.15     20.00
   23.9591     69.91     73.43    -30.92     20.00
   23.9693     70.43     73.24    -30.22     20.00
   23.9794     69.77     73.06    -30.70     20.00
   23.9896     71.08     72.88    -29.20     20.00
   23.9997     70.52     72.70    -29.58     20.00
   24.0099     70.78     72.52    -29.15     20.00
   24.0201     69.98     72.34    -29.77     20.00
   24.0302     69.38     72.17    -30.19     20.00
   24.0404     68.48     71.99    -30.92     20.00
   24.0506     67.34     71.82    -31.88     20.00
   24.0607     68.28     71.65    -30.77     20.00
   24.0709     68.95     71.47    -29.93     20.00
   24.0811     67.38     71.30    -31.33     20.00
   24.0912     68.76     71.14    -29.78     20.00
   24.1014     67.52     70.97    -30.85     20.00
   24.1116     66.90     70.80    -31.31     20.00
   24.1217     67.04     70.63    -31.00     20.00
   24.1319     67.06     70.47    -30.82     20.00
   24.1421     66.80     70.31    -30.91     20.00
   24.1522     67.07     70.14    -30.48     20.00
   24.1624     65.49     69.98    -31.90     20.00
   24.1725     66.38     69.82    -30.85     20.00
   24.1827     65.94     69.66    -31.13     20.00
   24.1929     64.91     69.50    -32.00     20.00
   24.2030     65.54     69.34    -31.21     20.00
   24.2132     66.29     69.19    -30.30     20.00
   24.2234     65.33     69.03    -31.10     20.00
   24.2335     64.66     68.87    -31.62     20.00
   24.2437     64.90     68.72    -31.22     20.00
   24.2539     65.54     68.56    -30.43     20.00
   24.2640     64.37     68.41    -31.45     20.00
   24.2742     63.26     68.26    -32.40     20.00
   24.2844     64.65     68.11    -30.86     20.00
   24.2945     63.55     67.96    -31.81     20.00
   24.3047     63.12     67.80    -32.09     20.00
   24.3148     64.70     67.66    -30.36     20.00
   24.3250     63.80     67.51    -31.11     20.00
   24.3352     64.84     67.36    -29.92     20.00
   24.3453     63.15     67.21    -31.47     20.00
   24.3555     63.39     67.06    -31.08     20.00
   24.3657     62.92     66.92    -31.40     20.00
   24.3758     62.76     66.77    -31.42     20.00
   24.3860     63.24     66.62    -30.79     20.00
   24.3962     62.65     66.48    -31.24     20.00
   24.4063     62.84     66.34    -30.90     20.00
   24.4165     62.30     66.19    -31.30     20.00
   24.4267     63.00     66.05    -30.46     20.00
   24.4368     62.02     65.91    -31.29     20.00
   24.4470     62.87     65.77    -30.30     20.00
   24.4572     62.59     65.63    -30.44     20.00
   24.4673     62.74     65.49    -30.15     20.00
   24.4775     62.76     65.35    -29.99     20.00
   24.4876     61.52     65.21    -31.09     20.00
   24.4978     60.70     65.07    -31.77     20.00
   24.5080     62.18     64.93    -30.16     20.00
   24.5181     60.37     64.79    -31.83     20.00
   24.5283     61.35     64.66    -30.71     20.00
   24.5385     60.04     64.52    -31.88     20.00
   24.5486     60.39     64.38    -31.40     20.00
   24.5588     60.67     64.25    -30.98     20.00
   24.5690     60.62     64.11    -30.90     20.00
   24.5791     60.83     63.98    -30.55     20.00
   24.5893     61.15     63.84    -30.10     20.00
   24.5995     59.50     63.71    -31.62     20.00
   24.6096     60.98     63.58    -30.00     20.00
   24.6198     60.34     63.45    -30.51     20.00
   24.6299     59.85     63.31    -30.87     20.00
   24.6401     59.95     63.18    -30.64     20.00
   24.6503     59.46     63.05    -31.00     20.00
   24.6604     59.80     62.92    -30.53     20.00
   24.6706     59.32     62.79    -30.88     20.00
   24.6808     58.69     62.66    -31.38     20.00
   24.6909     60.51     62.53    -29.43     20.00
   24.7011     58.99     62.41    -30.82     20.00
   24.7113     58.01     62.28    -31.67     20.00
   24.7214     59.15     62.15    -30.41     20.00
   24.7316     59.08     62.02    -30.35     20.00
   24.7418     59.28     61.90    -30.02     20.00
   24.7519     58.10     61.77    -31.08     20.00
   24.7621     59.13     61.64    -29.92     20.00
   24.7723     59.43     61.52    -29.50     20.00
   24.7824     57.05     61.40    -31.75     20.00
   24.7926     57.79     61.27    -30.89     20.00
   24.8027     57.91     61.15    -30.64     20.00
   24.8129     58.18     61.02    -30.25     20.00
   24.8231     58.46     60.90    -29.85     20.00
   24.8332     58.08     60.78    -30.10     20.00
   24.8434     57.65     60.66    -30.41     20.00
   24.8536     57.45     60.53    -30.49     20.00
   24.8637     57.26     60.41    -30.56     20.00
   24.8739     57.70     60.29    -30.00     20.00
   24.8841     57.18     60.17    -30.40     20.00
   24.8942     57.42     60.05    -30.04     20.00
   24.9044     56.76     59.93    -30.58     20.00
   24.9146     57.91     59.81    -29.31     20.00
   24.9247     57.56     59.70    -29.54     20.00
   24.9349     57.77     59.58    -29.21     20.00
   24.9450     57.43     59.46    -29.44     20.00
   24.9552     56.59     59.34    -30.16     20.00
   24.9654     58.09     59.23    -28.54     20.00
   24.9755     56.65     59.11    -29.87     20.00
   24.9857     57.44     58.99    -28.96     20.00
   24.9959     56.88     58.88    -29.40     20.00
   25.0060     56.75     58.76    -29.42     20.00
   25.0162     57.41     58.65    -28.64     20.00
   25.0264     56.27     58.53    -29.67     20.00
   25.0365     55.70     58.42    -30.13     20.00
   25.0467     56.70     58.31    -29.01     20.00
   25.0569     57.26     58.19    -28.34     20.00
   25.0670     55.99     58.08    -29.50     20.00
   25.0772     55.64     57.97    -29.73     20.00
   25.0874     56.08     57.85    -29.18     20.00
   25.0975     55.52     57.74    -29.63     20.00
   25.1077     55.69     57.63    -29.35     20.00
   25.1178     56.27     57.52    -28.66     20.00
   25.1280     55.97     57.41    -28.85     20.00
   25.1382     56.20     57.30    -28.51     20.00
   25.1483     56.60     57.19    -28.00     20.00
   25.1585     56.32     57.08    -28.17     20.00
   25.1687     55.71     56.97    -28.67     20.00
   25.1788     55.32     56.87    -28.95     20.00
   25.1890     55.56     56.76    -28.60     20.00
   25.1992     54.90     56.65    -29.15     20.00
   25.2093     54.65     56.54    -29.30     20.00
   25.2195     55.59     56.44    -28.25     20.00
   25.2297     56.70     56.33    -27.03     20.00
   25.2398     55.79     56.22    -27.84     20.00
   25.2500     55.80     56.12    -27.72     20.00
   25.2601     54.50     56.01    -28.92     20.00
   25.2703     55.50     55.91    -27.81     20.00
   25.2805     53.70     55.80    -29.51     20.00
   25.2906     55.40     55.70    -27.70     20.00
   25.3008     54.80     55.59    -28.20     20.00
   25.3110     55.74     55.49    -27.16     20.00
   25.3211     54.65     55.39    -28.14     20.00
   25.3313     55.32     55.28    -27.37     20.00
   25.3415     56.15     55.18    -26.44     20.00
   25.3516     54.86     55.08    -27.63     20.00
   25.3618     54.54     54.98    -27.85     20.00
   25.3720     54.62     54.88    -27.66     20.00
   25.3821     54.11     54.78    -28.07     20.00
   25.3923     54.66     54.68    -27.42     20.00
   25.4024     55.18     54.58    -26.80     20.00
   25.4126     54.74     54.48    -27.14     20.00
   25.4228     54.66     54.38    -27.12     20.00
   25.4329     54.86     54.28    -26.83     20.00
   25.4431     53.89     54.18    -27.70     20.00
   25.4533     55.24     54.08    -26.25     20.00
   25.4634     53.45     53.98    -27.94     20.00
   25.4736     54.16     53.89    -27.13     20.00
   25.4838     55.10     53.79    -26.10     20.00
   25.4939     55.02     53.69    -26.08     20.00
   25.5041     54.18     53.60    -26.82     20.00
   25.5143     53.29     53.50    -27.62     20.00
   25.5244     54.88     53.41    -25.93     20.00
   25.5346     54.59     53.31    -26.13     20.00
   25.5448     54.04     53.22    -26.58     20.00
   25.5549     54.74     53.12    -25.79     20.00
   25.5651     53.45     53.03    -26.98     20.00
   25.5752     53.38     52.93    -26.96     20.00
   25.5854     53.93     52.84    -26.32     20.00
   25.5956     54.06     52.75    -26.09     20.00
   25.6057     54.86     52.66    -25.20     20.00
   25.6159     53.21     52.56    -26.76     20.00
   25.6261     54.13     52.47    -25.75     20.00
   25.6362     53.73     52.38    -26.06     20.00
   25.6464     52.84     52.29    -26.85     20.00
   25.6566     54.26     52.20    -25.34     20.00
   25.6667     54.30     52.11    -25.21     20.00
   25.6769     53.32     52.02    -26.10     20.00
   25.6871     52.05     51.93    -27.28     20.00
   25.6972     54.09     51.84    -25.15     20.00
   25.7074     54.24     51.75    -24.92     20.00
   25.7175     53.33     51.66    -25.74     20.00
   25.7277     53.02     51.57    -25.96     20.00
   25.7379     52.95     51.49    -25.94     20.00
   25.7480     53.57     51.40    -25.23     20.00
   25.7582     53.12     51.31    -25.60     20.00
   25.7684     53.43     51.22    -25.20     20.00
   25.7785     54.05     51.14    -24.49     20.00
   25.7887     53.01     51.05    -25.45     20.00
   25.7989     52.85     50.97    -25.52     20.00
   25.8090     52.91     50.88    -25.38     20.00
   25.8192     52.93     50.80    -25.27     20.00
   25.8294     53.07     50.71    -25.05     20.00
   25.8395     52.95     50.63    -25.09     20.00
   25.8497     52.43     50.55    -25.52     20.00
   25.8599     51.43     50.46    -26.44     20.00
   25.8700     52.84     50.38    -24.95     20.00
   25.8802     51.44     50.30    -26.26     20.00
   25.8903     52.13     50.22    -25.49     20.00
   25.9005     52.52     50.13    -25.02     20.00
   25.9107     53.29     50.05    -24.17     20.00
   25.9208     52.09     49.97    -25.29     20.00
   25.9310     51.46     49.89    -25.84     20.00
   25.9412     52.67     49.81    -24.55     20.00
   25.9513     51.74     49.73    -25.40     20.00
   25.9615     52.49     49.65    -24.57     20.00
   25.9717     51.32     49.57    -25.66     20.00
   25.9818     52.60     49.49    -24.30     20.00
   25.9920     50.56     49.42    -26.26     20.00
   26.0022     51.55     49.34    -25.19     20.00
   26.0123     51.51     49.26    -25.16     20.00
   26.0225     51.55     49.18    -25.04     20.00
   26.0326     51.21     49.11    -25.30     20.00
   26.0428     51.08     49.03    -25.36     20.00
   26.0530     51.95     48.95    -24.41     20.00
   26.0631     51.12     48.88    -25.17     20.00
   26.0733     51.20     48.80    -25.01     20.00
   26.0835     50.98     48.73    -25.16     20.00
   26.0936     51.24     48.66    -24.82     20.00
   26.1038     50.27     48.58    -25.72     20.00
   26.1140     50.01     48.51    -25.90     20.00
   26.1241     51.78     48.44    -24.06     20.00
   26.1343     51.27     48.36    -24.50     20.00
   26.1445     50.36     48.29    -25.34     20.00
   26.1546     50.97     48.22    -24.65     20.00
   26.1648     50.50     48.15    -25.05     20.00
   26.1750     50.27     48.08    -25.21     20.00
   26.1851     50.71     48.01    -24.70     20.00
   26.1953     50.40     47.94    -24.94     20.00
   26.2054     50.24     47.87    -25.03     20.00
   26.2156     49.90     47.80    -25.30     20.00
   26.2258     50.32     47.73    -24.81     20.00
   26.2359     50.72     47.66    -24.35     20.00
   26.2461     50.24     47.59    -24.76     20.00
   26.2563     49.29     47.52    -25.64     20.00
   26.2664     49.32     47.46    -25.54     20.00
   26.2766     49.65     47.39    -25.15     20.00
   26.2868     49.15     47.33    -25.58     20.00
   26.2969     50.15     47.26    -24.52     20.00
   26.3071     49.74     47.19    -24.86     20.00
   26.3173     49.12     47.13    -25.42     20.00
   26.3274     50.01     47.07    -24.46     20.00
   26.3376     49.70     47.00    -24.71     20.00
   26.3477     50.26     46.94    -24.09     20.00
   26.3579     48.95     46.88    -25.33     20.00
   26.3681     49.74     46.81    -24.48     20.00
   26.3782     49.59     46.75    -24.57     20.00
   26.3884     49.50     46.69    -24.60     20.00
   26.3986     48.99     46.63    -25.05     20.00
   26.4087     49.49     46.57    -24.49     20.00
   26.4189     49.45     46.51    -24.47     20.00
   26.4291     49.77     46.45    -24.09     20.00
   26.4392     49.36     46.39    -24.44     20.00
   26.4494     48.23     46.33    -25.51     20.00
   26.4596     48.73     46.28    -24.95     20.00
   26.4697     49.28     46.22    -24.35     20.00
   26.4799     48.60     46.16    -24.97     20.00
   26.4901     49.68     46.11    -23.83     20.00
   26.5002     48.39     46.05    -25.07     20.00
   26.5104     48.63     46.00    -24.77     20.00
   26.5205     48.39     45.94    -24.96     20.00
   26.5307     47.93     45.89    -25.37     20.00
   26.5409     48.41     45.84    -24.83     20.00
   26.5510     48.35     45.79    -24.84     20.00
   26.5612     49.17     45.73    -23.97     20.00
   26.5714     48.71     45.68    -24.38     20.00
   26.5815     48.46     45.63    -24.58     20.00
   26.5917     48.67     45.58    -24.32     20.00
   26.6019     47.69     45.53    -25.25     20.00
   26.6120     48.74     45.49    -24.15     20.00
   26.6222     47.82     45.44    -25.02     20.00
   26.6324     48.56     45.39    -24.24     20.00
   26.6425     48.65     45.35    -24.10     20.00
   26.6527     48.28     45.30    -24.43     20.00
   26.6628     48.83     45.26    -23.83     20.00
   26.6730     49.01     45.21    -23.61     20.00
   26.6832     47.96     45.17    -24.61     20.00
   26.6933     47.85     45.13    -24.68     20.00
   26.7035     48.92     45.09    -23.57     20.00
   26.7137     47.44     45.04    -25.01     20.00
   26.7238     48.13     45.01    -24.28     20.00
   26.7340     48.19     44.97    -24.18     20.00
   26.7442     49.23     44.93    -23.10     20.00
   26.7543     47.08     44.89    -25.22     20.00
   26.7645     48.33     44.86    -23.93     20.00
   26.7747     47.40     44.82    -24.83     20.00
   26.7848     48.41     44.79    -23.78     20.00
   26.7950     47.37     44.75    -24.79     20.00
   26.8052     48.21     44.72    -23.92     20.00
   26.8153     48.05     44.69    -24.05     20.00
   26.8255     46.24     44.66    -25.83     20.00
   26.8356     47.12     44.63    -24.92     20.00
   26.8458     47.37     44.61    -24.64     20.00
   26.8560     47.43     44.58    -24.56     20.00
   26.8661     47.24     44.55    -24.72     20.00
   26.8763     46.20     44.53    -25.74     20.00
   26.8865     47.20     44.51    -24.71     20.00
   26.8966     47.02     44.49    -24.87     20.00
   26.9068     47.63     44.47    -24.24     20.00
   26.9170     46.24     44.45    -25.61     20.00
   26.9271     47.95     44.43    -23.89     20.00
   26.9373     47.04     44.42    -24.78     20.00
   26.9475     46.79     44.40    -25.02     20.00
   26.9576     46.76     44.39    -25.03     20.00
   26.9678     47.80     44.38    -23.98     20.00
   26.9779     47.42     44.37    -24.35     20.00
   26.9881     47.31     44.36    -24.45     20.00
   26.9983     47.91     44.35    -23.85     20.00
   27.0084     46.90     44.35    -24.85     20.00
   27.0186     47.39     44.34    -24.36     20.00
   27.0288     47.40     44.34    -24.35     20.00
   27.0389     46.98     44.34    -24.77     20.00
   27.0491     46.53     44.34    -25.22     20.00
   27.0593     46.70     44.35    -25.05     20.00
   27.0694     47.03     44.35    -24.73     20.00
   27.0796     46.45     44.36    -25.32     20.00
   27.0898     47.55     44.37    -24.23     20.00
   27.0999     47.40     44.38    -24.39     20.00
   27.1101     46.38     44.40    -25.42     20.00
   27.1202     46.93     44.41    -24.89     20.00
   27.1304     48.20     44.43    -23.64     20.00
   27.1406     47.34     44.45    -24.52     20.00
   27.1507     47.45     44.47    -24.43     20.00
   27.1609     46.60     44.50    -25.30     20.00
   27.1711     47.45     44.53    -24.48     20.00
   27.1812     47.30     44.56    -24.66     20.00
   27.1914     46.67     44.59    -25.32     20.00
   27.2016     47.01     44.62    -25.02     20.00
   27.2117     47.52     44.66    -24.55     20.00
   27.2219     46.56     44.70    -25.55     20.00
   27.2321     47.18     44.74    -24.97     20.00
   27.2422     48.11     44.79    -24.08     20.00
   27.2524     47.26     44.84    -24.98     20.00
   27.2626     47.43     44.89    -24.86     20.00
   27.2727     46.38     44.94    -25.97     20.00
   27.2829     47.82     45.00    -24.58     20.00
   27.2930     47.37     45.06    -25.09     20.00
   27.3032     46.76     45.12    -25.77     20.00
   27.3134     47.07     45.19    -25.52     20.00
   27.3235     46.40     45.25    -26.26     20.00
   27.3337     46.64     45.33    -26.09     20.00
   27.3439     46.49     45.40    -26.32     20.00
   27.3540     47.16     45.48    -25.73     20.00
   27.3642     47.02     45.56    -25.95     20.00
   27.3744     47.81     45.65    -25.24     20.00
   27.3845     47.57     45.74    -25.57     20.00
   27.3947     47.65     45.83    -25.59     20.00
   27.4049     47.71     45.93    -25.62     20.00
   27.4150     48.51     46.02    -24.92     20.00
   27.4252     47.87     46.13    -25.66     20.00
   27.4353     47.09     46.23    -26.55     20.00
   27.4455     47.55     46.34    -26.20     20.00
   27.4557     46.65     46.46    -27.22     20.00
   27.4658     46.91     46.58    -27.07     20.00
   27.4760     47.61     46.70    -26.50     20.00
   27.4862     48.19     46.83    -26.04     20.00
   27.4963     48.60     46.95    -25.76     20.00
   27.5065     49.09     47.09    -25.40     20.00
   27.5167     48.38     47.23    -26.25     20.00
   27.5268     47.14     47.37    -27.63     20.00
   27.5370     48.48     47.51    -26.44     20.00
   27.5472     48.30     47.66    -26.77     20.00
   27.5573     48.87     47.82    -26.35     20.00
   27.5675     47.14     47.98    -28.24     20.00
   27.5777     48.22     48.14    -27.33     20.00
   27.5878     48.67     48.30    -27.04     20.00
   27.5980     48.24     48.48    -27.64     20.00
   27.6081     48.09     48.65    -27.97     20.00
   27.6183     48.07     48.83    -28.17     20.00
   27.6285     49.51     49.01    -26.91     20.00
   27.6386     48.92     49.20    -27.69     20.00
   27.6488     49.02     49.39    -27.78     20.00
   27.6590     49.91     49.59    -27.09     20.00
   27.6691     49.02     49.79    -28.18     20.00
   27.6793     50.00     50.00    -27.40     20.00
   27.6895     49.05     50.21    -28.56     20.00
   27.6996     49.91     50.42    -27.92     20.00
   27.7098     51.04     50.64    -27.00     20.00
   27.7200     50.59     50.86    -27.68     20.00
   27.7301     50.89     51.09    -27.60     20.00
   27.7403     49.91     51.32    -28.81     20.00
   27.7504     51.07     51.55    -27.89     20.00
   27.7606     50.96     51.79    -28.24     20.00
   27.7708     50.01     52.04    -29.43     20.00
   27.7809     51.12     52.28    -28.57     20.00
   27.7911     51.18     52.53    -28.76     20.00
   27.8013     51.53     52.79    -28.67     20.00
   27.8114     49.99     53.05    -30.46     20.00
   27.8216     51.39     53.31    -29.33     20.00
   27.8318     50.87     53.58    -30.12     20.00
   27.8419     51.64     53.85    -29.62     20.00
   27.8521     52.84     54.13    -28.69     20.00
   27.8623     52.35     54.41    -29.46     20.00
   27.8724     52.12     54.69    -29.97     20.00
   27.8826     52.61     54.97    -29.77     20.00
   27.8928     53.04     55.26    -29.63     20.00
   27.9029     54.36     55.55    -28.60     20.00
   27.9131     53.82     55.85    -29.43     20.00
   27.9232     53.98     56.15    -29.57     20.00
   27.9334     53.74     56.45    -30.11     20.00
   27.9436     54.10     56.75    -30.06     20.00
   27.9537     55.03     57.06    -29.43     20.00
   27.9639     55.60     57.37    -29.18     20.00
   27.9741     55.55     57.68    -29.54     20.00
   27.9842     56.36     57.99    -29.04     20.00
   27.9944     55.19     58.31    -30.53     20.00
   28.0046     56.55     58.63    -29.49     20.00
   28.0147     58.25     58.95    -28.11     20.00
   28.0249     57.23     59.27    -29.45     20.00
   28.0351     57.12     59.60    -29.88     20.00
   28.0452     57.90     59.92    -29.43     20.00
   28.0554     57.97     60.25    -29.68     20.00
   28.0655     57.91     60.57    -30.07     20.00
   28.0757     57.91     60.90    -30.40     20.00
   28.0859     60.10     61.23    -28.53     20.00
   28.0960     60.38     61.55    -28.58     20.00
   28.1062     60.18     61.88    -29.11     20.00
   28.1164     61.72     62.21    -27.90     20.00
   28.1265     60.88     62.54    -29.06     20.00
   28.1367     62.50     62.86    -27.77     20.00
   28.1469     62.74     63.19    -27.85     20.00
   28.1570     61.08     63.51    -29.84     20.00
   28.1672     62.66     63.83    -28.58     20.00
   28.1774     62.88     64.15    -28.68     20.00
   28.1875     64.20     64.47    -27.67     20.00
   28.1977     64.13     64.78    -28.06     20.00
   28.2079     64.75     65.09    -27.75     20.00
   28.2180     64.23     65.40    -28.58     20.00
   28.2282     64.63     65.70    -28.48     20.00
   28.2383     64.97     66.00    -28.44     20.00
   28.2485     66.44     66.30    -27.26     20.00
   28.2587     66.80     66.59    -27.20     20.00
   28.2688     67.19     66.87    -27.09     20.00
   28.2790     67.36     67.15    -27.20     20.00
   28.2892     67.98     67.43    -26.85     20.00
   28.2993     67.43     67.69    -27.67     20.00
   28.3095     68.41     67.95    -26.95     20.00
   28.3197     69.75     68.21    -25.86     20.00
   28.3298     70.24     68.45    -25.62     20.00
   28.3400     68.17     68.69    -27.92     20.00
   28.3502     69.62     68.92    -26.70     20.00
   28.3603     70.39     69.14    -26.15     20.00
   28.3705     70.10     69.35    -26.66     20.00
   28.3806     70.37     69.55    -26.59     20.00
   28.3908     70.40     69.74    -26.75     20.00
   28.4010     71.46     69.93    -25.87     20.00
   28.4111     70.79     70.10    -26.71     20.00
   28.4213     71.41     70.26    -26.25     20.00
   28.4315     71.86     70.41    -25.95     20.00
   28.4416     71.23     70.54    -26.72     20.00
   28.4518     71.57     70.67    -26.51     20.00
   28.4620     72.26     70.79    -25.93     20.00
   28.4721     71.88     70.89    -26.41     20.00
   28.4823     72.24     70.98    -26.15     20.00
   28.4925     74.63     71.06    -23.83     20.00
   28.5026     72.87     71.12    -25.66     20.00
   28.5128     73.88     71.17    -24.70     20.00
   28.5230     72.15     71.21    -26.47     20.00
   28.5331     74.12     71.24    -24.52     20.00
   28.5433     73.40     71.25    -25.26     20.00
   28.5534     73.49     71.25    -25.17     20.00
   28.5636     73.26     71.24    -25.38     20.00
   28.5738     74.20     71.21    -24.42     20.00
   28.5839     73.35     71.17    -25.23     20.00
   28.5941     72.75     71.12    -25.78     20.00
   28.6043     73.45     71.05    -25.01     20.00
   28.6144     72.61     70.98    -25.77     20.00
   28.6246     73.01     70.88    -25.28     20.00
   28.6348     72.95     70.78    -25.24     20.00
   28.6449     71.63     70.67    -26.44     20.00
   28.6551     73.03     70.54    -24.91     20.00
   28.6653     72.14     70.40    -25.66     20.00
   28.6754     70.94     70.25    -26.72     20.00
   28.6856     71.99     70.09    -25.50     20.00
   28.6957     71.09     69.91    -26.23     20.00
   28.7059     70.91     69.73    -26.23     20.00
   28.7161     70.80     69.54    -26.14     20.00
   28.7262     70.71     69.33    -26.03     20.00
   28.7364     69.71     69.12    -26.82     20.00
   28.7466     69.10     68.90    -27.20     20.00
   28.7567     69.25     68.67    -26.82     20.00
   28.7669     68.45     68.43    -27.38     20.00
   28.7771     69.24     68.18    -26.34     20.00
   28.7872     68.23     67.92    -27.10     20.00
   28.7974     67.94     67.66    -27.12     20.00
   28.8076     68.26     67.39    -26.53     20.00
   28.8177     68.37     67.11    -26.15     20.00
   28.8279     65.16     66.83    -29.07     20.00
   28.8381     66.66     66.54    -27.28     20.00
   28.8482     66.56     66.25    -27.09     20.00
   28.8584     65.01     65.95    -28.34     20.00
   28.8685     65.32     65.64    -27.73     20.00
   28.8787     64.61     65.34    -28.13     20.00
   28.8889     63.97     65.02    -28.46     20.00
   28.8990     65.52     64.71    -26.59     20.00
   28.9092     64.79     64.39    -27.01     20.00
   28.9194     62.76     64.07    -28.71     20.00
   28.9295     62.53     63.74    -28.62     20.00
   28.9397     62.57     63.42    -28.25     20.00
   28.9499     62.73     63.09    -27.76     20.00
   28.9600     61.03     62.76    -29.13     20.00
   28.9702     61.81     62.43    -28.02     20.00
   28.9804     60.60     62.09    -28.90     20.00
   28.9905     60.76     61.76    -28.41     20.00
   29.0007     60.53     61.43    -28.30     20.00
   29.0108     59.59     61.09    -28.91     20.00
   29.0210     59.44     60.76    -28.72     20.00
   29.0312     59.63     60.42    -28.20     20.00
   29.0413     57.78     60.09    -29.72     20.00
   29.0515     58.71     59.76    -28.45     20.00
   29.0617     58.47     59.43    -28.36     20.00
   29.0718     57.53     59.10    -28.97     20.00
   29.0820     58.22     58.77    -27.95     20.00
   29.0922     57.75     58.44    -28.09     20.00
   29.1023     56.66     58.11    -28.86     20.00
   29.1125     55.73     57.79    -29.46     20.00
   29.1227     56.64     57.46    -28.23     20.00
   29.1328     56.02     57.15    -28.53     20.00
   29.1430     55.84     56.83    -28.39     20.00
   29.1531     55.23     56.51    -28.69     20.00
   29.1633     54.07     56.20    -29.53     20.00
   29.1735     54.68     55.89    -28.61     20.00
   29.1836     54.43     55.58    -28.56     20.00
   29.1938     53.77     55.27    -28.91     20.00
   29.2040     53.96     54.97    -28.42     20.00
   29.2141     52.42     54.68    -29.66     20.00
   29.2243     53.39     54.38    -28.39     20.00
   29.2345     52.46     54.09    -29.03     20.00
   29.2446     52.83     53.80    -28.37     20.00
   29.2548     51.98     53.51    -28.94     20.00
   29.2650     51.65     53.23    -28.99     20.00
   29.2751     52.10     52.95    -28.26     20.00
   29.2853     51.66     52.68    -28.42     20.00
   29.2955     51.02     52.40    -28.79     20.00
   29.3056     52.13     52.14    -27.42     20.00
   29.3158     51.02     51.87    -28.26     20.00
   29.3259     50.52     51.62    -28.50     20.00
   29.3361     50.85     51.36    -27.92     20.00
   29.3463     49.66     51.11    -28.85     20.00
   29.3564     49.79     50.86    -28.48     20.00
   29.3666     49.45     50.61    -28.57     20.00
   29.3768     49.31     50.37    -28.47     20.00
   29.3869     49.26     50.14    -28.28     20.00
   29.3971     50.48     49.90    -26.83     20.00
   29.4073     48.95     49.67    -28.13     20.00
   29.4174     48.02     49.45    -28.84     20.00
   29.4276     48.15     49.23    -28.49     20.00
   29.4378     48.40     49.01    -28.02     20.00
   29.4479     47.17     48.80    -29.04     20.00
   29.4581     47.39     48.59    -28.61     20.00
   29.4682     47.32     48.39    -28.47     20.00
   29.4784     47.78     48.18    -27.81     20.00
   29.4886     46.68     47.98    -28.71     20.00
   29.4987     47.98     47.79    -27.22     20.00
   29.5089     47.20     47.60    -27.81     20.00
   29.5191     46.99     47.41    -27.83     20.00
   29.5292     45.59     47.23    -29.05     20.00
   29.5394     46.77     47.05    -27.69     20.00
   29.5496     46.38     46.88    -27.90     20.00
   29.5597     46.18     46.70    -27.93     20.00
   29.5699     46.76     46.54    -27.18     20.00
   29.5801     45.63     46.37    -28.15     20.00
   29.5902     46.01     46.21    -27.60     20.00
   29.6004     45.59     46.05    -27.87     20.00
   29.6106     44.49     45.89    -28.81     20.00
   29.6207     44.94     45.74    -28.21     20.00
   29.6309     45.04     45.59    -27.96     20.00
   29.6410     44.98     45.45    -27.87     20.00
   29.6512     44.06     45.31    -28.65     20.00
   29.6614     44.77     45.17    -27.80     20.00
   29.6715     45.72     45.03    -26.72     20.00
   29.6817     44.99     44.90    -27.31     20.00
   29.6919     45.01     44.76    -27.16     20.00
   29.7020     44.80     44.64    -27.24     20.00
   29.7122     44.38     44.51    -27.54     20.00
   29.7224     43.68     44.39    -28.11     20.00
   29.7325     43.40     44.27    -28.27     20.00
   29.7427     44.59     44.15    -26.96     20.00
   29.7529     43.60     44.03    -27.84     20.00
   29.7630     45.30     43.92    -26.03     20.00
   29.7732     43.24     43.81    -27.97     20.00
   29.7833     42.84     43.70    -28.27     20.00
   29.7935     43.48     43.59    -27.52     20.00
   29.8037     43.36     43.49    -27.53     20.00
   29.8138     42.62     43.39    -28.17     20.00
   29.8240     42.79     43.28    -27.90     20.00
   29.8342     42.79     43.19    -27.80     20.00
   29.8443     43.26     43.09    -27.23     20.00
   29.8545     43.82     42.99    -26.58     20.00
   29.8647     42.88     42.90    -27.42     20.00
   29.8748     43.10     42.81    -27.11     20.00
   29.8850     43.30     42.72    -26.82     20.00
   29.8952     42.68     42.63    -27.35     20.00
   29.9053     43.38     42.54    -26.56     20.00
   29.9155     42.79     42.45    -27.07     20.00
   29.9257     43.66     42.37    -26.11     20.00
   29.9358     43.16     42.28    -26.53     20.00
   29.9460     41.87     42.20    -27.73     20.00
   29.9561     41.74     42.12    -27.78     20.00
   29.9663     41.45     42.03    -27.99     20.00
   29.9765     42.57     41.95    -26.79     20.00
   29.9866     41.94     41.87    -27.34     20.00
   29.9968     42.55     41.80    -26.65     20.00
   30.0070     42.97     41.72    -26.15     20.00
   30.0171     42.38     41.64    -26.67     20.00
   30.0273     42.07     41.56    -26.90     20.00
   30.0375     42.54     41.49    -26.35     20.00
   30.0476     40.87     41.41    -27.95     20.00
   30.0578     42.22     41.34    -26.52     20.00
   30.0680     42.19     41.26    -26.48     20.00
   30.0781     42.37     41.19    -26.23     20.00
   30.0883     42.07     41.12    -26.45     20.00
   30.0984     41.92     41.04    -26.53     20.00
   30.1086     41.18     40.97    -27.20     20.00
   30.1188     41.08     40.90    -27.22     20.00
   30.1289     42.07     40.82    -26.16     20.00
   30.1391     41.84     40.75    -26.32     20.00
   30.1493     41.13     40.68    -26.96     20.00
   30.1594     42.25     40.61    -25.76     20.00
   30.1696     40.70     40.54    -27.24     20.00
   30.1798     41.32     40.46    -26.55     20.00
   30.1899     40.69     40.39    -27.11     20.00
   30.2001     40.97     40.32    -26.76     20.00
   30.2103     40.51     40.25    -27.15     20.00
   30.2204     41.39     40.18    -26.19     20.00
   30.2306     39.74     40.11    -27.77     20.00
   30.2408     40.55     40.03    -26.89     20.00
   30.2509     41.05     39.96    -26.32     20.00
   30.2611     40.26     39.89    -27.04     20.00
   30.2712     40.77     39.82    -26.45     20.00
   30.2814     40.04     39.75    -27.11     20.00
   30.2916     39.71     39.67    -27.37     20.00
   30.3017     39.43     39.60    -27.58     20.00
   30.3119     40.09     39.53    -26.85     20.00
   30.3221     39.92     39.46    -26.94     20.00
   30.3322     38.79     39.38    -28.00     20.00
   30.3424     39.75     39.31    -26.97     20.00
   30.3526     39.33     39.24    -27.31     20.00
   30.3627     39.21     39.16    -27.36     20.00
   30.3729     38.87     39.09    -27.63     20.00
   30.3831     38.40     39.02    -28.02     20.00
   30.3932     39.12     38.94    -27.23     20.00
   30.4034     38.74     38.87    -27.54     20.00
   30.4135     38.70     38.80    -27.50     20.00
   30.4237     39.60     38.72    -26.53     20.00
   30.4339     38.60     38.65    -27.45     20.00
   30.4440     37.90     38.57    -28.08     20.00
   30.4542     38.65     38.50    -27.25     20.00
   30.4644     37.09     38.42    -28.74     20.00
   30.4745     37.40     38.35    -28.36     20.00
   30.4847     37.87     38.27    -27.81     20.00
   30.4949     37.62     38.20    -27.98     20.00
   30.5050     36.59     38.12    -28.94     20.00
   30.5152     38.15     38.05    -27.30     20.00
   30.5254     37.49     37.97    -27.89     20.00
   30.5355     36.40     37.90    -28.90     20.00
   30.5457     37.05     37.82    -28.18     20.00
   30.5559     37.94     37.75    -27.21     20.00
   30.5660     37.44     37.67    -27.64     20.00
   30.5762     37.05     37.60    -27.95     20.00
   30.5863     37.34     37.52    -27.59     20.00
   30.5965     36.79     37.44    -28.06     20.00
   30.6067     36.93     37.37    -27.84     20.00
   30.6168     36.13     37.29    -28.57     20.00
   30.6270     36.35     37.22    -28.27     20.00
   30.6372     36.45     37.14    -28.10     20.00
   30.6473     36.25     37.07    -28.22     20.00
   30.6575     36.20     36.99    -28.20     20.00
   30.6677     36.39     36.92    -27.93     20.00
   30.6778     36.43     36.84    -27.82     20.00
   30.6880     36.72     36.76    -27.45     20.00
   30.6982     36.12     36.69    -27.98     20.00
   30.7083     36.93     36.62    -27.09     20.00
   30.7185     35.13     36.54    -28.82     20.00
   30.7286     34.85     36.47    -29.02     20.00
   30.7388     36.18     36.39    -27.62     20.00
   30.7490     35.39     36.32    -28.33     20.00
   30.7591     35.90     36.24    -27.75     20.00
   30.7693     35.40     36.17    -28.17     20.00
   30.7795     35.61     36.10    -27.89     20.00
   30.7896     34.96     36.02    -28.47     20.00
   30.7998     34.90     35.95    -28.45     20.00
   30.8100     35.05     35.88    -28.23     20.00
   30.8201     35.72     35.80    -27.49     20.00
   30.8303     34.77     35.73    -28.37     20.00
   30.8405     34.19     35.66    -28.87     20.00
   30.8506     35.35     35.59    -27.64     20.00
   30.8608     34.41     35.51    -28.51     20.00
   30.8710     34.89     35.44    -27.96     20.00
   30.8811     34.83     35.37    -27.95     20.00
   30.8913     35.30     35.30    -27.41     20.00
   30.9014     34.66     35.23    -27.98     20.00
   30.9116     34.45     35.16    -28.12     20.00
   30.9218     34.88     35.09    -27.62     20.00
   30.9319     34.80     35.02    -27.63     20.00
   30.9421     34.64     34.96    -27.72     20.00
   30.9523     34.36     34.89    -27.93     20.00
   30.9624     34.19     34.82    -28.04     20.00
   30.9726     34.99     34.75    -27.17     20.00
   30.9828     35.36     34.68    -26.73     20.00
   30.9929     35.01     34.62    -27.01     20.00
   31.0031     33.45     34.55    -28.51     20.00
   31.0133     34.45     34.49    -27.44     20.00
   31.0234     34.05     34.42    -27.78     20.00
   31.0336     33.47     34.36    -28.29     20.00
   31.0437     34.17     34.29    -27.53     20.00
   31.0539     33.92     34.23    -27.71     20.00
   31.0641     33.57     34.16    -28.00     20.00
   31.0742     33.16     34.10    -28.35     20.00
   31.0844     33.93     34.04    -27.52     20.00
   31.0946     33.74     33.98    -27.64     20.00
   31.1047     34.48     33.92    -26.84     20.00
   31.1149     33.68     33.86    -27.58     20.00
   31.1251     33.88     33.80    -27.32     20.00
   31.1352     33.34     33.74    -27.80     20.00
   31.1454     33.90     33.68    -27.18     20.00
   31.1556     32.95     33.62    -28.08     20.00
   31.1657     33.87     33.56    -27.10     20.00
   31.1759     33.45     33.50    -27.46     20.00
   31.1860     33.41     33.45    -27.44     20.00
   31.1962     34.09     33.39    -26.71     20.00
   31.2064     32.84     33.34    -27.90     20.00
   31.2165     34.26     33.28    -26.43     20.00
   31.2267     32.38     33.23    -28.25     20.00
   31.2369     33.01     33.17    -27.57     20.00
   31.2470     32.21     33.12    -28.32     20.00
   31.2572     33.91     33.07    -26.56     20.00
   31.2674     32.52     33.02    -27.90     20.00
   31.2775     32.79     32.96    -27.58     20.00
   31.2877     32.62     32.91    -27.70     20.00
   31.2979     32.61     32.86    -27.66     20.00
   31.3080     32.49     32.81    -27.73     20.00
   31.3182     33.54     32.77    -26.63     20.00
   31.3284     32.22     32.72    -27.90     20.00
   31.3385     33.33     32.67    -26.75     20.00
   31.3487     33.20     32.62    -26.83     20.00
   31.3588     33.39     32.58    -26.59     20.00
   31.3690     33.07     32.53    -26.87     20.00
   31.3792     33.21     32.49    -26.68     20.00
   31.3893     31.88     32.44    -27.97     20.00
   31.3995     32.49     32.40    -27.32     20.00
   31.4097     32.39     32.36    -27.37     20.00
   31.4198     33.59     32.32    -26.13     20.00
   31.4300     33.52     32.27    -26.16     20.00
   31.4402     32.22     32.23    -27.42     20.00
   31.4503     32.76     32.19    -26.84     20.00
   31.4605     31.96     32.15    -27.60     20.00
   31.4707     33.63     32.12    -25.89     20.00
   31.4808     33.37     32.08    -26.11     20.00
   31.4910     32.76     32.04    -26.69     20.00
   31.5011     32.79     32.00    -26.62     20.00
   31.5113     33.30     31.97    -26.07     20.00
   31.5215     32.37     31.93    -26.97     20.00
   31.5316     33.13     31.90    -26.17     20.00
   31.5418     33.24     31.87    -26.03     20.00
   31.5520     32.53     31.83    -26.71     20.00
   31.5621     32.98     31.80    -26.23     20.00
   31.5723     32.12     31.77    -27.05     20.00
   31.5825     32.27     31.74    -26.87     20.00
   31.5926     32.21     31.71    -26.90     20.00
   31.6028     32.19     31.68    -26.89     20.00
   31.6130     32.99     31.65    -26.06     20.00
   31.6231     33.40     31.62    -25.63     20.00
   31.6333     32.61     31.59    -26.39     20.00
   31.6435     32.36     31.57    -26.61     20.00
   31.6536     32.09     31.54    -26.86     20.00
   31.6638     32.31     31.52    -26.61     20.00
   31.6739     32.20     31.49    -26.70     20.00
   31.6841     32.38     31.47    -26.49     20.00
   31.6943     32.07     31.44    -26.78     20.00
   31.7044     32.05     31.42    -26.78     20.00
   31.7146     32.88     31.40    -25.93     20.00
   31.7248     31.80     31.38    -26.99     20.00
   31.7349     32.55     31.36    -26.21     20.00
   31.7451     33.55     31.34    -25.20     20.00
   31.7553     31.93     31.32    -26.80     20.00
   31.7654     32.10     31.30    -26.61     20.00
   31.7756     32.61     31.28    -26.08     20.00
   31.7858     31.80     31.27    -26.87     20.00
   31.7959     31.80     31.25    -26.86     20.00
   31.8061     31.35     31.24    -27.29     20.00
   31.8162     31.93     31.22    -26.70     20.00
   31.8264     32.29     31.21    -26.32     20.00
   31.8366     32.27     31.19    -26.33     20.00
   31.8467     32.49     31.18    -26.10     20.00
   31.8569     32.08     31.17    -26.49     20.00
   31.8671     33.45     31.16    -25.11     20.00
   31.8772     32.33     31.15    -26.22     20.00
   31.8874     32.30     31.14    -26.24     20.00
   31.8976     31.82     31.13    -26.71     20.00
   31.9077     31.59     31.12    -26.93     20.00
   31.9179     32.71     31.11    -25.81     20.00
   31.9281     33.23     31.10    -25.28     20.00
   31.9382     31.97     31.10    -26.53     20.00
   31.9484     31.97     31.09    -26.53     20.00
   31.9586     32.65     31.08    -25.84     20.00
   31.9687     31.52     31.08    -26.97     20.00
   31.9789     32.65     31.08    -25.83     20.00
   31.9890     32.01     31.07    -26.47     20.00
   31.9992     31.50     31.07    -26.98     20.00
   32.0094     32.06     31.07    -26.41     20.00
   32.0195     32.70     31.07    -25.77     20.00
   32.0297     32.70     31.06    -25.77     20.00
   32.0399     33.68     31.06    -24.79     20.00
   32.0500     32.57     31.06    -25.90     20.00
   32.0602     31.51     31.06    -26.96     20.00
   32.0704     32.48     31.07    -25.99     20.00
   32.0805     32.10     31.07    -26.37     20.00
   32.0907     31.78     31.07    -26.70     20.00
   32.1009     32.13     31.07    -26.35     20.00
   32.1110     32.72     31.08    -25.76     20.00
   32.1212     32.30     31.08    -26.19     20.00
   32.1313     32.66     31.09    -25.83     20.00
   32.1415     32.93     31.09    -25.57     20.00
   32.1517     32.17     31.10    -26.33     20.00
   32.1618     32.69     31.10    -25.82     20.00
   32.1720     32.27     31.11    -26.25     20.00
   32.1822     32.52     31.12    -26.00     20.00
   32.1923     32.98     31.12    -25.55     20.00
   32.2025     32.39     31.13    -26.15     20.00
   32.2127     32.60     31.14    -25.95     20.00
   32.2228     32.27     31.15    -26.29     20.00
   32.2330     31.92     31.16    -26.65     20.00
   32.2432     32.87     31.17    -25.71     20.00
   32.2533     32.39     31.18    -26.20     20.00
   32.2635     32.85     31.19    -25.75     20.00
   32.2737     32.85     31.21    -25.76     20.00
   32.2838     32.41     31.22    -26.21     20.00
   32.2940     33.39     31.23    -25.25     20.00
   32.3041     32.73     31.24    -25.92     20.00
   32.3143     33.32     31.26    -25.34     20.00
   32.3245     33.00     31.27    -25.68     20.00
   32.3346     32.99     31.29    -25.70     20.00
   32.3448     33.38     31.30    -25.33     20.00
   32.3550     33.58     31.31    -25.14     20.00
   32.3651     32.74     31.33    -26.00     20.00
   32.3753     32.78     31.35    -25.97     20.00
   32.3855     33.34     31.36    -25.43     20.00
   32.3956     32.43     31.38    -26.35     20.00
   32.4058     32.64     31.40    -26.16     20.00
   32.4160     33.32     31.41    -25.50     20.00
   32.4261     31.83     31.43    -27.01     20.00
   32.4363     32.99     31.45    -25.86     20.00
   32.4464     33.74     31.47    -25.13     20.00
   32.4566     32.85     31.48    -26.04     20.00
   32.4668     32.80     31.50    -26.11     20.00
   32.4769     33.16     31.52    -25.77     20.00
   32.4871     33.41     31.54    -25.54     20.00
   32.4973     32.90     31.56    -26.07     20.00
   32.5074     33.33     31.58    -25.66     20.00
   32.5176     32.91     31.60    -26.10     20.00
   32.5278     33.44     31.62    -25.59     20.00
   32.5379     33.65     31.64    -25.40     20.00
   32.5481     32.96     31.66    -26.11     20.00
   32.5583     33.71     31.68    -25.38     20.00
   32.5684     33.48     31.70    -25.63     20.00
   32.5786     33.01     31.72    -26.12     20.00
   32.5888     32.71     31.74    -26.44     20.00
   32.5989     33.03     31.76    -26.14     20.00
   32.6091     33.44     31.79    -25.75     20.00
   32.6192     33.03     31.81    -26.18     20.00
   32.6294     32.60     31.83    -26.63     20.00
   32.6396     32.34     31.85    -26.92     20.00
   32.6497     32.68     31.87    -26.60     20.00
   32.6599     33.03     31.89    -26.27     20.00
   32.6701     33.73     31.91    -25.59     20.00
   32.6802     32.70     31.93    -26.64     20.00
   32.6904     32.43     31.96    -26.93     20.00
   32.7006     32.74     31.98    -26.64     20.00
   32.7107     32.80     32.00    -26.60     20.00
   32.7209     33.68     32.02    -25.74     20.00
   32.7311     32.84     32.04    -26.61     20.00
   32.7412     32.78     32.06    -26.69     20.00
   32.7514     32.67     32.08    -26.82     20.00
   32.7615     32.58     32.10    -26.93     20.00
   32.7717     32.60     32.12    -26.93     20.00
   32.7819     34.04     32.14    -25.51     20.00
   32.7920     32.78     32.16    -26.79     20.00
   32.8022     32.57     32.18    -27.02     20.00
   32.8124     32.86     32.20    -26.75     20.00
   32.8225     32.39     32.22    -27.24     20.00
   32.8327     32.24     32.24    -27.41     20.00
   32.8429     33.77     32.26    -25.89     20.00
   32.8530     32.40     32.28    -27.28     20.00
   32.8632     32.27     32.29    -27.43     20.00
   32.8734     33.16     32.31    -26.56     20.00
   32.8835     32.51     32.33    -27.23     20.00
   32.8937     32.63     32.35    -27.12     20.00
   32.9039     33.00     32.36    -26.77     20.00
   32.9140     32.93     32.38    -26.86     20.00
   32.9242     32.64     32.39    -27.16     20.00
   32.9343     33.91     32.41    -25.91     20.00
   32.9445     32.40     32.42    -27.43     20.00
   32.9547     32.96     32.44    -26.89     20.00
   32.9648     32.07     32.45    -27.79     20.00
   32.9750     33.29     32.47    -26.58     20.00
   32.9852     32.49     32.48    -27.39     20.00
   32.9953     33.06     32.49    -26.84     20.00
   33.0055     33.73     32.50    -26.18     20.00
   33.0157     33.29     32.51    -26.63     20.00
   33.0258     32.38     32.52    -27.55     20.00
   33.0360     32.93     32.53    -27.01     20.00
   33.0462     32.64     32.54    -27.31     20.00
   33.0563     31.73     32.55    -28.23     20.00
   33.0665     32.63     32.56    -27.33     20.00
   33.0766     33.80     32.56    -26.17     20.00
   33.0868     33.71     32.57    -26.27     20.00
   33.0970     33.21     32.58    -26.77     20.00
   33.1071     33.26     32.58    -26.73     20.00
   33.1173     32.49     32.59    -27.50     20.00
   33.1275     33.30     32.59    -26.69     20.00
   33.1376     32.34     32.59    -27.66     20.00
   33.1478     33.63     32.59    -26.37     20.00
   33.1580     33.26     32.59    -26.74     20.00
   33.1681     32.61     32.59    -27.39     20.00
   33.1783     33.38     32.59    -26.62     20.00
   33.1885     33.74     32.59    -26.26     20.00
   33.1986     33.53     32.59    -26.46     20.00
   33.2088     32.80     32.58    -27.19     20.00
   33.2189     33.48     32.58    -26.51     20.00
   33.2291     33.61     32.58    -26.37     20.00
   33.2393     32.59     32.57    -27.39     20.00
   33.2494     34.07     32.56    -25.90     20.00
   33.2596     33.39     32.56    -26.57     20.00
   33.2698     33.03     32.55    -26.92     20.00
   33.2799     33.11     32.54    -26.83     20.00
   33.2901     33.48     32.53    -26.45     20.00
   33.3003     33.47     32.52    -26.45     20.00
   33.3104     33.36     32.50    -26.55     20.00
   33.3206     33.52     32.49    -26.38     20.00
   33.3308     33.80     32.48    -26.08     20.00
   33.3409     32.15     32.46    -27.72     20.00
   33.3511     32.69     32.45    -27.16     20.00
   33.3613     33.18     32.43    -26.66     20.00
   33.3714     33.80     32.41    -26.02     20.00
   33.3816     33.44     32.39    -26.36     20.00
   33.3917     33.54     32.37    -26.24     20.00
   33.4019     33.41     32.35    -26.35     20.00
   33.4121     32.96     32.33    -26.78     20.00
   33.4222     32.47     32.31    -27.25     20.00
   33.4324     33.85     32.29    -25.84     20.00
   33.4426     33.11     32.27    -26.56     20.00
   33.4527     33.29     32.24    -26.36     20.00
   33.4629     33.80     32.22    -25.82     20.00
   33.4731     33.46     32.19    -26.14     20.00
   33.4832     33.16     32.16    -26.41     20.00
   33.4934     33.49     32.13    -26.05     20.00
   33.5036     32.58     32.11    -26.93     20.00
   33.5137     31.78     32.08    -27.70     20.00
   33.5239     33.05     32.05    -26.40     20.00
   33.5340     32.88     32.02    -26.54     20.00
   33.5442     32.17     31.98    -27.22     20.00
   33.5544     32.35     31.95    -27.01     20.00
   33.5645     31.89     31.92    -27.44     20.00
   33.5747     32.15     31.89    -27.14     20.00
   33.5849     32.29     31.85    -26.97     20.00
   33.5950     31.85     31.82    -27.37     20.00
   33.6052     32.64     31.78    -26.55     20.00
   33.6154     32.07     31.74    -27.08     20.00
   33.6255     31.84     31.71    -27.27     20.00
   33.6357     31.46     31.67    -27.62     20.00
   33.6459     31.38     31.63    -27.66     20.00
   33.6560     31.77     31.59    -27.23     20.00
   33.6662     32.02     31.55    -26.94     20.00
   33.6764     31.71     31.51    -27.21     20.00
   33.6865     31.71     31.47    -27.17     20.00
   33.6967     31.20     31.43    -27.64     20.00
   33.7068     31.60     31.39    -27.20     20.00
   33.7170     31.65     31.35    -27.10     20.00
   33.7272     30.64     31.31    -28.07     20.00
   33.7373     30.91     31.26    -27.76     20.00
   33.7475     30.66     31.22    -27.97     20.00
   33.7577     31.56     31.18    -27.02     20.00
   33.7678     31.29     31.13    -27.25     20.00
   33.7780     30.35     31.09    -28.14     20.00
   33.7882     29.79     31.04    -28.66     20.00
   33.7983     30.47     31.00    -27.93     20.00
   33.8085     30.04     30.95    -28.32     20.00
   33.8187     30.46     30.91    -27.85     20.00
   33.8288     30.08     30.86    -28.19     20.00
   33.8390     30.12     30.81    -28.10     20.00
   33.8491     29.67     30.77    -28.50     20.00
   33.8593     29.55     30.72    -28.58     20.00
   33.8695     29.18     30.67    -28.90     20.00
   33.8796     29.40     30.63    -28.63     20.00
   33.8898     29.71     30.58    -28.27     20.00
   33.9000     29.37     30.53    -28.57     20.00
   33.9101     29.71     30.48    -28.18     20.00
   33.9203     29.53     30.43    -28.31     20.00
   33.9305     28.92     30.38    -28.87     20.00
   33.9406     28.87     30.34    -28.87     20.00
   33.9508     29.09     30.29    -28.60     20.00
   33.9610     28.58     30.24    -29.06     20.00
   33.9711     28.34     30.19    -29.26     20.00
   33.9813     28.18     30.14    -29.37     20.00
   33.9915     28.65     30.09    -28.85     20.00
   34.0016     28.15     30.04    -29.30     20.00
   34.0118     27.68     29.99    -29.72     20.00
   34.0219     28.18     29.94    -29.17     20.00
   34.0321     28.52     29.89    -28.78     20.00
   34.0423     27.91     29.84    -29.34     20.00
   34.0524     27.52     29.80    -29.68     20.00
   34.0626     28.04     29.75    -29.11     20.00
   34.0728     27.71     29.70    -29.39     20.00
   34.0829     27.27     29.65    -29.78     20.00
   34.0931     28.30     29.60    -28.70     20.00
   34.1033     27.70     29.55    -29.25     20.00
   34.1134     27.44     29.50    -29.46     20.00
   34.1236     27.80     29.45    -29.06     20.00
   34.1338     27.85     29.40    -28.96     20.00
   34.1439     26.87     29.35    -29.89     20.00
   34.1541     27.50     29.30    -29.21     20.00
   34.1642     27.32     29.25    -29.34     20.00
   34.1744     27.26     29.20    -29.35     20.00
   34.1846     27.21     29.16    -29.35     20.00
   34.1947     26.98     29.11    -29.53     20.00
   34.2049     26.93     29.06    -29.53     20.00
   34.2151     27.29     29.01    -29.13     20.00
   34.2252     26.95     28.96    -29.42     20.00
   34.2354     26.39     28.91    -29.93     20.00
   34.2456     26.49     28.87    -29.78     20.00
   34.2557     27.67     28.82    -28.55     20.00
   34.2659     26.68     28.77    -29.50     20.00
   34.2761     26.72     28.72    -29.41     20.00
   34.2862     27.30     28.68    -28.78     20.00
   34.2964     26.65     28.63    -29.38     20.00
   34.3066     26.33     28.58    -29.66     20.00
   34.3167     26.51     28.53    -29.43     20.00
   34.3269     26.88     28.49    -29.01     20.00
   34.3370     26.54     28.44    -29.31     20.00
   34.3472     26.79     28.40    -29.01     20.00
   34.3574     26.28     28.35    -29.48     20.00
   34.3675     26.04     28.30    -29.67     20.00
   34.3777     27.35     28.26    -28.31     20.00
   34.3879     26.10     28.21    -29.52     20.00
   34.3980     25.96     28.17    -29.61     20.00
   34.4082     26.34     28.12    -29.19     20.00
   34.4184     26.67     28.08    -28.81     20.00
   34.4285     26.69     28.03    -28.75     20.00
   34.4387     25.40     27.99    -30.00     20.00
   34.4489     26.37     27.95    -28.98     20.00
   34.4590     26.51     27.90    -28.80     20.00
   34.4692     26.82     27.86    -28.45     20.00
   34.4793     25.47     27.82    -29.75     20.00
   34.4895     26.13     27.77    -29.05     20.00
   34.4997     26.34     27.73    -28.80     20.00
   34.5098     26.07     27.69    -29.03     20.00
   34.5200     25.54     27.65    -29.51     20.00
   34.5302     25.79     27.61    -29.22     20.00
   34.5403     26.17     27.56    -28.80     20.00
   34.5505     25.97     27.52    -28.96     20.00
   34.5607     26.37     27.48    -28.52     20.00
   34.5708     26.09     27.44    -28.76     20.00
   34.5810     26.26     27.40    -28.55     20.00
   34.5912     26.25     27.36    -28.52     20.00
   34.6013     26.16     27.32    -28.57     20.00
   34.6115     25.46     27.28    -29.23     20.00
   34.6217     26.34     27.24    -28.31     20.00
   34.6318     26.17     27.20    -28.44     20.00
   34.6420     25.51     27.17    -29.06     20.00
   34.6521     25.66     27.13    -28.87     20.00
   34.6623     26.10     27.09    -28.40     20.00
   34.6725     25.42     27.05    -29.04     20.00
   34.6826     25.84     27.01    -28.58     20.00
   34.6928     26.05     26.98    -28.33     20.00
   34.7030     26.36     26.94    -27.99     20.00
   34.7131     25.88     26.90    -28.43     20.00
   34.7233     24.85     26.87    -29.42     20.00
   34.7335     25.35     26.83    -28.89     20.00
   34.7436     25.66     26.80    -28.54     20.00
   34.7538     26.02     26.76    -28.15     20.00
   34.7640     25.50     26.73    -28.63     20.00
   34.7741     24.96     26.69    -29.14     20.00
   34.7843     25.09     26.66    -28.97     20.00
   34.7944     25.68     26.62    -28.35     20.00
   34.8046     24.88     26.59    -29.11     20.00
   34.8148     25.58     26.56    -28.38     20.00
   34.8249     25.18     26.52    -28.75     20.00
   34.8351     25.40     26.49    -28.50     20.00
   34.8453     25.54     26.46    -28.32     20.00
   34.8554     25.23     26.42    -28.60     20.00
   34.8656     24.98     26.39    -28.82     20.00
   34.8758     24.85     26.36    -28.92     20.00
   34.8859     25.32     26.33    -28.42     20.00
   34.8961     25.35     26.30    -28.35     20.00
   34.9063     25.90     26.27    -27.77     20.00
   34.9164     25.09     26.24    -28.55     20.00
   34.9266     25.85     26.21    -27.76     20.00
   34.9367     25.63     26.18    -27.95     20.00
   34.9469     25.69     26.15    -27.86     20.00
   34.9571     25.29     26.12    -28.23     20.00
   34.9672     24.85     26.09    -28.64     20.00
   34.9774     25.15     26.06    -28.32     20.00
   34.9876     24.84     26.03    -28.60     20.00
   34.9977     25.07     26.00    -28.34     20.00
   35.0079     24.92     25.97    -28.46     20.00
   35.0181     24.73     25.95    -28.62     20.00
   35.0282     25.47     25.92    -27.86     20.00
   35.0384     24.73     25.89    -28.57     20.00
   35.0486     24.85     25.87    -28.42     20.00
   35.0587     24.79     25.84    -28.46     20.00
   35.0689     25.10     25.81    -28.12     20.00
   35.0791     25.26     25.79    -27.93     20.00
   35.0892     25.18     25.76    -27.99     20.00
   35.0994     25.21     25.74    -27.93     20.00
   35.1095     25.35     25.71    -27.77     20.00
   35.1197     24.94     25.69    -28.15     20.00
   35.1299     24.83     25.66    -28.24     20.00
   35.1400     25.78     25.64    -27.26     20.00
   35.1502     24.80     25.61    -28.22     20.00
   35.1604     25.24     25.59    -27.75     20.00
   35.1705     24.95     25.56    -28.02     20.00
   35.1807     25.10     25.54    -27.85     20.00
   35.1909     24.95     25.52    -27.97     20.00
   35.2010     25.45     25.50    -27.45     20.00
   35.2112     23.98     25.47    -28.90     20.00
   35.2214     24.12     25.45    -28.74     20.00
   35.2315     25.36     25.43    -27.47     20.00
   35.2417     25.32     25.41    -27.49     20.00
   35.2518     25.04     25.38    -27.75     20.00
   35.2620     25.21     25.36    -27.56     20.00
   35.2722     24.70     25.34    -28.05     20.00
   35.2823     25.80     25.32    -26.93     20.00
   35.2925     24.78     25.30    -27.93     20.00
   35.3027     24.52     25.28    -28.17     20.00
   35.3128     24.35     25.26    -28.32     20.00
   35.3230     24.52     25.24    -28.12     20.00
   35.3332     24.82     25.22    -27.80     20.00
   35.3433     24.42     25.20    -28.19     20.00
   35.3535     24.79     25.18    -27.80     20.00
   35.3637     24.48     25.16    -28.09     20.00
   35.3738     24.23     25.14    -28.32     20.00
   35.3840     24.99     25.12    -27.54     20.00
   35.3942     24.46     25.10    -28.05     20.00
   35.4043     24.49     25.09    -28.00     20.00
   35.4145     24.16     25.07    -28.31     20.00
   35.4246     24.57     25.05    -27.89     20.00
   35.4348     25.39     25.03    -27.05     20.00
   35.4450     25.35     25.01    -27.07     20.00
   35.4551     24.65     25.00    -27.75     20.00
   35.4653     24.46     24.98    -27.93     20.00
   35.4755     24.46     24.96    -27.91     20.00
   35.4856     24.01     24.95    -28.34     20.00
   35.4958     23.89     24.93    -28.44     20.00
   35.5060     24.99     24.91    -27.33     20.00
   35.5161     24.99     24.90    -27.31     20.00
   35.5263     23.87     24.88    -28.42     20.00
   35.5365     24.45     24.86    -27.82     20.00
   35.5466     24.38     24.85    -27.87     20.00
   35.5568     24.89     24.83    -27.35     20.00
   35.5669     24.30     24.82    -27.92     20.00
   35.5771     24.46     24.80    -27.75     20.00
   35.5873     23.96     24.79    -28.23     20.00
   35.5974     23.91     24.77    -28.27     20.00
   35.6076     25.30     24.76    -26.86     20.00
   35.6178     24.54     24.74    -27.61     20.00
   35.6279     24.26     24.73    -27.87     20.00
   35.6381     24.70     24.71    -27.42     20.00
   35.6483     24.08     24.70    -28.03     20.00
   35.6584     24.75     24.69    -27.34     20.00
   35.6686     24.65     24.67    -27.43     20.00
   35.6788     24.35     24.66    -27.71     20.00
   35.6889     23.62     24.64    -28.43     20.00
   35.6991     23.69     24.63    -28.35     20.00
   35.7093     23.50     24.62    -28.52     20.00
   35.7194     24.54     24.60    -27.47     20.00
   35.7296     24.02     24.59    -27.98     20.00
   35.7397     23.62     24.58    -28.36     20.00
   35.7499     23.51     24.57    -28.46     20.00
   35.7601     24.98     24.55    -26.98     20.00
   35.7702     23.92     24.54    -28.03     20.00
   35.7804     23.90     24.53    -28.03     20.00
   35.7906     25.02     24.52    -26.90     20.00
   35.8007     23.94     24.50    -27.97     20.00
   35.8109     24.20     24.49    -27.70     20.00
   35.8211     24.24     24.48    -27.65     20.00
   35.8312     24.54     24.47    -27.33     20.00
   35.8414     24.09     24.46    -27.77     20.00
   35.8516     24.57     24.44    -27.28     20.00
   35.8617     24.05     24.43    -27.79     20.00
   35.8719     24.25     24.42    -27.58     20.00
   35.8820     24.26     24.41    -27.56     20.00
   35.8922     24.14     24.40    -27.67     20.00
   35.9024     24.10     24.39    -27.69     20.00
   35.9125     24.43     24.38    -27.35     20.00
   35.9227     24.30     24.37    -27.47     20.00
   35.9329     24.35     24.36    -27.41     20.00
   35.9430     24.32     24.35    -27.43     20.00
   35.9532     24.53     24.34    -27.21     20.00
   35.9634     24.37     24.32    -27.36     20.00
   35.9735     23.95     24.31    -27.77     20.00
   35.9837     24.24     24.30    -27.47     20.00
   35.9939     24.36     24.29    -27.34     20.00
