 => TITLE: 
 => Data file name: C:\Users\stefano\Nextcloud2\uni\master-thesis\XRD\data\G110\G110--5-40-0.01-1000ms.xy
 => Instrm        :    1
 => Lambda(1&2)   :   1.54060  1.54060
 => Numb.of.points:      2951
 => Numb.of.peaks :         7
    2Theta     Yobs     Ycalc  Yobs-Ycal    Backg    Bragg     Posr  Intensity   FWHM    Eta
    6.0086     24.21     24.84    -28.85     20.00   18.6405     -3.23     150.80  0.7179  0.6343
    6.0187     22.81     24.84    -30.26     20.00   20.5968     -3.23      26.42  0.6265  0.6343
    6.0289     23.58     24.85    -29.49     20.00   22.5292     -3.23     112.21  0.9995  0.6343
    6.0391     24.31     24.86    -28.77     20.00   28.5221     -3.23      64.76  1.3438  0.6343
    6.0492     23.40     24.86    -29.69     20.00   29.9864     -3.23      26.79  2.1224  0.6343
    6.0594     22.86     24.87    -30.23     20.00   33.3542     -3.23      19.20  2.1224  0.6343
    6.0696     22.82     24.88    -30.28     20.00   19.6409     -3.23    1088.13  8.6419  0.6343
    6.0797     23.32     24.89    -29.79     20.00
    6.0899     23.02     24.89    -30.09     20.00
    6.1001     23.08     24.90    -30.04     20.00
    6.1102     23.36     24.91    -29.77     20.00
    6.1204     23.54     24.91    -29.60     20.00
    6.1306     23.07     24.92    -30.07     20.00
    6.1407     23.61     24.93    -29.54     20.00
    6.1509     23.74     24.94    -29.42     20.00
    6.1611     23.59     24.94    -29.57     20.00
    6.1712     23.54     24.95    -29.63     20.00
    6.1814     23.24     24.96    -29.94     20.00
    6.1915     22.85     24.96    -30.34     20.00
    6.2017     23.46     24.97    -29.73     20.00
    6.2119     23.52     24.98    -29.68     20.00
    6.2220     23.11     24.99    -30.10     20.00
    6.2322     23.62     24.99    -29.60     20.00
    6.2424     24.08     25.00    -29.14     20.00
    6.2525     22.77     25.01    -30.46     20.00
    6.2627     23.32     25.02    -29.92     20.00
    6.2729     23.79     25.02    -29.45     20.00
    6.2830     23.43     25.03    -29.82     20.00
    6.2932     23.14     25.04    -30.12     20.00
    6.3034     22.57     25.04    -30.70     20.00
    6.3135     23.15     25.05    -30.12     20.00
    6.3237     22.66     25.06    -30.62     20.00
    6.3338     23.16     25.07    -30.13     20.00
    6.3440     23.97     25.07    -29.33     20.00
    6.3542     23.28     25.08    -30.02     20.00
    6.3643     22.89     25.09    -30.42     20.00
    6.3745     23.23     25.10    -30.09     20.00
    6.3847     22.90     25.11    -30.43     20.00
    6.3948     22.51     25.11    -30.82     20.00
    6.4050     23.77     25.12    -29.57     20.00
    6.4152     23.41     25.13    -29.94     20.00
    6.4253     23.03     25.14    -30.33     20.00
    6.4355     23.00     25.14    -30.37     20.00
    6.4457     23.35     25.15    -30.02     20.00
    6.4558     23.45     25.16    -29.93     20.00
    6.4660     23.12     25.17    -30.27     20.00
    6.4762     22.98     25.17    -30.42     20.00
    6.4863     23.38     25.18    -30.02     20.00
    6.4965     23.34     25.19    -30.07     20.00
    6.5066     23.75     25.20    -29.67     20.00
    6.5168     23.45     25.21    -29.98     20.00
    6.5270     23.17     25.21    -30.27     20.00
    6.5371     23.08     25.22    -30.36     20.00
    6.5473     22.80     25.23    -30.65     20.00
    6.5575     23.36     25.24    -30.10     20.00
    6.5676     21.76     25.25    -31.71     20.00
    6.5778     23.21     25.25    -30.27     20.00
    6.5880     22.71     25.26    -30.77     20.00
    6.5981     23.18     25.27    -30.31     20.00
    6.6083     22.59     25.28    -30.91     20.00
    6.6185     23.41     25.29    -30.10     20.00
    6.6286     23.01     25.29    -30.51     20.00
    6.6388     23.46     25.30    -30.06     20.00
    6.6489     23.67     25.31    -29.86     20.00
    6.6591     23.79     25.32    -29.75     20.00
    6.6693     23.27     25.33    -30.28     20.00
    6.6794     23.60     25.33    -29.96     20.00
    6.6896     22.80     25.34    -30.77     20.00
    6.6998     23.59     25.35    -29.98     20.00
    6.7099     23.59     25.36    -29.99     20.00
    6.7201     22.59     25.37    -31.00     20.00
    6.7303     23.66     25.38    -29.94     20.00
    6.7404     22.66     25.38    -30.95     20.00
    6.7506     22.47     25.39    -31.15     20.00
    6.7608     23.46     25.40    -30.16     20.00
    6.7709     23.60     25.41    -30.03     20.00
    6.7811     23.57     25.42    -30.07     20.00
    6.7913     22.84     25.43    -30.81     20.00
    6.8014     23.08     25.44    -30.58     20.00
    6.8116     23.40     25.44    -30.27     20.00
    6.8217     23.15     25.45    -30.52     20.00
    6.8319     23.43     25.46    -30.25     20.00
    6.8421     23.67     25.47    -30.02     20.00
    6.8522     22.57     25.48    -31.13     20.00
    6.8624     24.00     25.49    -29.71     20.00
    6.8726     22.99     25.50    -30.73     20.00
    6.8827     23.12     25.50    -30.61     20.00
    6.8929     23.90     25.51    -29.84     20.00
    6.9031     22.65     25.52    -31.09     20.00
    6.9132     24.29     25.53    -29.46     20.00
    6.9234     24.07     25.54    -29.69     20.00
    6.9336     22.24     25.55    -31.53     20.00
    6.9437     23.03     25.56    -30.75     20.00
    6.9539     23.30     25.57    -30.49     20.00
    6.9640     23.65     25.57    -30.15     20.00
    6.9742     23.94     25.58    -29.87     20.00
    6.9844     23.76     25.59    -30.05     20.00
    6.9945     23.49     25.60    -30.33     20.00
    7.0047     23.61     25.61    -30.22     20.00
    7.0149     23.13     25.62    -30.71     20.00
    7.0250     23.76     25.63    -30.09     20.00
    7.0352     23.93     25.64    -29.93     20.00
    7.0454     24.56     25.65    -29.31     20.00
    7.0555     23.90     25.66    -29.98     20.00
    7.0657     23.99     25.67    -29.90     20.00
    7.0759     23.80     25.67    -30.10     20.00
    7.0860     23.62     25.68    -30.29     20.00
    7.0962     24.05     25.69    -29.86     20.00
    7.1064     23.28     25.70    -30.64     20.00
    7.1165     23.46     25.71    -30.47     20.00
    7.1267     23.81     25.72    -30.13     20.00
    7.1368     23.83     25.73    -30.12     20.00
    7.1470     23.75     25.74    -30.21     20.00
    7.1572     24.29     25.75    -29.68     20.00
    7.1673     23.67     25.76    -30.31     20.00
    7.1775     23.60     25.77    -30.39     20.00
    7.1877     23.73     25.78    -30.27     20.00
    7.1978     23.43     25.79    -30.58     20.00
    7.2080     23.58     25.80    -30.44     20.00
    7.2182     24.10     25.81    -29.93     20.00
    7.2283     24.15     25.82    -29.89     20.00
    7.2385     23.29     25.83    -30.76     20.00
    7.2487     24.35     25.83    -29.71     20.00
    7.2588     23.85     25.84    -30.22     20.00
    7.2690     23.58     25.85    -30.50     20.00
    7.2791     24.23     25.86    -29.86     20.00
    7.2893     23.85     25.87    -30.25     20.00
    7.2995     24.32     25.88    -29.79     20.00
    7.3096     24.64     25.89    -29.48     20.00
    7.3198     24.09     25.90    -30.04     20.00
    7.3300     23.55     25.91    -30.59     20.00
    7.3401     24.98     25.92    -29.17     20.00
    7.3503     24.16     25.93    -30.00     20.00
    7.3605     24.53     25.94    -29.64     20.00
    7.3706     23.41     25.95    -30.77     20.00
    7.3808     24.31     25.96    -29.88     20.00
    7.3910     24.02     25.97    -30.18     20.00
    7.4011     23.81     25.98    -30.40     20.00
    7.4113     24.54     25.99    -29.68     20.00
    7.4215     24.65     26.00    -29.58     20.00
    7.4316     24.94     26.01    -29.30     20.00
    7.4418     24.54     26.02    -29.71     20.00
    7.4519     24.26     26.03    -30.00     20.00
    7.4621     24.75     26.04    -29.52     20.00
    7.4723     24.30     26.06    -29.98     20.00
    7.4824     24.60     26.07    -29.69     20.00
    7.4926     24.66     26.08    -29.64     20.00
    7.5028     25.08     26.09    -29.23     20.00
    7.5129     24.99     26.10    -29.33     20.00
    7.5231     24.67     26.11    -29.66     20.00
    7.5333     24.32     26.12    -30.02     20.00
    7.5434     24.21     26.13    -30.14     20.00
    7.5536     24.99     26.14    -29.37     20.00
    7.5638     25.08     26.15    -29.29     20.00
    7.5739     24.48     26.16    -29.90     20.00
    7.5841     25.97     26.17    -28.42     20.00
    7.5942     24.87     26.18    -29.53     20.00
    7.6044     24.24     26.19    -30.17     20.00
    7.6146     25.04     26.20    -29.39     20.00
    7.6247     24.95     26.21    -29.49     20.00
    7.6349     24.25     26.22    -30.20     20.00
    7.6451     24.63     26.24    -29.83     20.00
    7.6552     24.43     26.25    -30.04     20.00
    7.6654     24.28     26.26    -30.20     20.00
    7.6756     25.02     26.27    -29.47     20.00
    7.6857     24.82     26.28    -29.68     20.00
    7.6959     24.46     26.29    -30.05     20.00
    7.7061     24.72     26.30    -29.80     20.00
    7.7162     25.55     26.31    -28.98     20.00
    7.7264     24.27     26.32    -30.28     20.00
    7.7365     25.60     26.34    -28.96     20.00
    7.7467     24.95     26.35    -29.62     20.00
    7.7569     25.21     26.36    -29.37     20.00
    7.7670     25.04     26.37    -29.55     20.00
    7.7772     25.31     26.38    -29.29     20.00
    7.7874     24.64     26.39    -29.97     20.00
    7.7975     24.83     26.40    -29.80     20.00
    7.8077     25.73     26.42    -28.91     20.00
    7.8179     25.45     26.43    -29.20     20.00
    7.8280     24.49     26.44    -30.17     20.00
    7.8382     25.24     26.45    -29.43     20.00
    7.8484     24.96     26.46    -29.72     20.00
    7.8585     25.26     26.47    -29.43     20.00
    7.8687     25.69     26.48    -29.02     20.00
    7.8789     25.13     26.50    -29.59     20.00
    7.8890     24.63     26.51    -30.10     20.00
    7.8992     25.47     26.52    -29.27     20.00
    7.9093     25.97     26.53    -28.78     20.00
    7.9195     25.85     26.54    -28.92     20.00
    7.9297     25.84     26.56    -28.94     20.00
    7.9398     25.43     26.57    -29.36     20.00
    7.9500     25.23     26.58    -29.57     20.00
    7.9602     26.21     26.59    -28.60     20.00
    7.9703     25.26     26.60    -29.57     20.00
    7.9805     25.14     26.62    -29.70     20.00
    7.9907     26.83     26.63    -28.02     20.00
    8.0008     26.15     26.64    -28.71     20.00
    8.0110     25.86     26.65    -29.01     20.00
    8.0212     25.90     26.67    -28.99     20.00
    8.0313     26.79     26.68    -28.11     20.00
    8.0415     25.56     26.69    -29.35     20.00
    8.0516     25.83     26.70    -29.09     20.00
    8.0618     25.93     26.71    -29.01     20.00
    8.0720     26.23     26.73    -28.72     20.00
    8.0821     27.07     26.74    -27.89     20.00
    8.0923     25.65     26.75    -29.32     20.00
    8.1025     25.71     26.77    -29.28     20.00
    8.1126     26.55     26.78    -28.45     20.00
    8.1228     25.62     26.79    -29.39     20.00
    8.1330     26.27     26.80    -28.76     20.00
    8.1431     25.93     26.82    -29.11     20.00
    8.1533     26.11     26.83    -28.94     20.00
    8.1635     25.56     26.84    -29.50     20.00
    8.1736     25.95     26.85    -29.13     20.00
    8.1838     26.13     26.87    -28.96     20.00
    8.1940     26.67     26.88    -28.43     20.00
    8.2041     26.24     26.89    -28.88     20.00
    8.2143     26.70     26.91    -28.43     20.00
    8.2244     27.26     26.92    -27.88     20.00
    8.2346     26.81     26.93    -28.35     20.00
    8.2448     26.13     26.95    -29.04     20.00
    8.2549     26.85     26.96    -28.33     20.00
    8.2651     26.51     26.97    -28.69     20.00
    8.2753     25.79     26.99    -29.42     20.00
    8.2854     26.55     27.00    -28.67     20.00
    8.2956     26.26     27.01    -28.98     20.00
    8.3058     26.87     27.03    -28.38     20.00
    8.3159     25.85     27.04    -29.41     20.00
    8.3261     26.99     27.05    -28.29     20.00
    8.3363     26.71     27.07    -28.58     20.00
    8.3464     26.52     27.08    -28.78     20.00
    8.3566     27.10     27.10    -28.22     20.00
    8.3667     26.33     27.11    -29.00     20.00
    8.3769     26.35     27.12    -29.00     20.00
    8.3871     26.68     27.14    -28.68     20.00
    8.3972     26.37     27.15    -29.00     20.00
    8.4074     26.47     27.17    -28.92     20.00
    8.4176     27.10     27.18    -28.30     20.00
    8.4277     26.38     27.19    -29.04     20.00
    8.4379     26.83     27.21    -28.60     20.00
    8.4481     28.05     27.22    -27.39     20.00
    8.4582     26.23     27.24    -29.23     20.00
    8.4684     27.22     27.25    -28.25     20.00
    8.4786     27.45     27.27    -28.04     20.00
    8.4887     26.52     27.28    -28.98     20.00
    8.4989     27.06     27.29    -28.46     20.00
    8.5091     27.37     27.31    -28.16     20.00
    8.5192     26.76     27.32    -28.79     20.00
    8.5294     27.67     27.34    -27.89     20.00
    8.5395     27.58     27.35    -27.99     20.00
    8.5497     26.64     27.37    -28.95     20.00
    8.5599     27.57     27.38    -28.03     20.00
    8.5700     26.77     27.40    -28.85     20.00
    8.5802     27.02     27.41    -28.61     20.00
    8.5904     27.98     27.43    -27.67     20.00
    8.6005     27.67     27.44    -27.99     20.00
    8.6107     27.40     27.46    -28.28     20.00
    8.6209     27.88     27.47    -27.81     20.00
    8.6310     27.31     27.49    -28.40     20.00
    8.6412     27.05     27.50    -28.67     20.00
    8.6514     27.22     27.52    -28.52     20.00
    8.6615     27.54     27.53    -28.22     20.00
    8.6717     27.60     27.55    -28.17     20.00
    8.6818     28.15     27.56    -27.64     20.00
    8.6920     27.24     27.58    -28.56     20.00
    8.7022     27.63     27.60    -28.19     20.00
    8.7123     28.09     27.61    -27.74     20.00
    8.7225     27.59     27.63    -28.26     20.00
    8.7327     27.75     27.64    -28.11     20.00
    8.7428     27.10     27.66    -28.78     20.00
    8.7530     27.43     27.67    -28.47     20.00
    8.7632     28.12     27.69    -27.79     20.00
    8.7733     27.91     27.71    -28.02     20.00
    8.7835     28.43     27.72    -27.51     20.00
    8.7937     27.65     27.74    -28.31     20.00
    8.8038     27.91     27.75    -28.07     20.00
    8.8140     27.81     27.77    -28.18     20.00
    8.8242     27.69     27.79    -28.32     20.00
    8.8343     28.10     27.80    -27.93     20.00
    8.8445     29.26     27.82    -26.78     20.00
    8.8546     27.74     27.84    -28.32     20.00
    8.8648     28.12     27.85    -27.95     20.00
    8.8750     28.46     27.87    -27.63     20.00
    8.8851     26.89     27.89    -29.22     20.00
    8.8953     28.28     27.90    -27.84     20.00
    8.9055     28.25     27.92    -27.89     20.00
    8.9156     27.30     27.94    -28.86     20.00
    8.9258     28.38     27.95    -27.80     20.00
    8.9360     27.76     27.97    -28.43     20.00
    8.9461     27.63     27.99    -28.58     20.00
    8.9563     28.03     28.00    -28.20     20.00
    8.9665     28.03     28.02    -28.21     20.00
    8.9766     27.88     28.04    -28.38     20.00
    8.9868     28.47     28.06    -27.81     20.00
    8.9969     28.04     28.07    -28.26     20.00
    9.0071     28.46     28.09    -27.85     20.00
    9.0173     28.03     28.11    -28.30     20.00
    9.0274     28.57     28.13    -27.78     20.00
    9.0376     28.49     28.14    -27.88     20.00
    9.0478     29.70     28.16    -26.68     20.00
    9.0579     29.12     28.18    -27.28     20.00
    9.0681     27.35     28.20    -29.07     20.00
    9.0783     28.25     28.21    -28.19     20.00
    9.0884     28.95     28.23    -27.50     20.00
    9.0986     28.96     28.25    -27.51     20.00
    9.1088     28.86     28.27    -27.63     20.00
    9.1189     29.11     28.29    -27.40     20.00
    9.1291     28.80     28.30    -27.73     20.00
    9.1393     29.79     28.32    -26.76     20.00
    9.1494     28.92     28.34    -27.64     20.00
    9.1596     28.35     28.36    -28.23     20.00
    9.1697     29.52     28.38    -27.08     20.00
    9.1799     28.71     28.40    -27.91     20.00
    9.1901     28.02     28.42    -28.62     20.00
    9.2002     29.21     28.43    -27.45     20.00
    9.2104     28.91     28.45    -27.76     20.00
    9.2206     29.21     28.47    -27.48     20.00
    9.2307     30.04     28.49    -26.67     20.00
    9.2409     29.27     28.51    -27.46     20.00
    9.2511     28.39     28.53    -28.36     20.00
    9.2612     29.15     28.55    -27.62     20.00
    9.2714     29.73     28.57    -27.06     20.00
    9.2816     28.58     28.59    -28.23     20.00
    9.2917     28.97     28.61    -27.86     20.00
    9.3019     29.65     28.63    -27.20     20.00
    9.3120     28.69     28.64    -28.18     20.00
    9.3222     29.46     28.66    -27.43     20.00
    9.3324     29.43     28.68    -27.48     20.00
    9.3425     29.21     28.70    -27.72     20.00
    9.3527     28.66     28.72    -28.29     20.00
    9.3629     29.82     28.74    -27.15     20.00
    9.3730     29.71     28.76    -27.28     20.00
    9.3832     29.89     28.78    -27.12     20.00
    9.3934     29.50     28.80    -27.53     20.00
    9.4035     29.34     28.82    -27.71     20.00
    9.4137     30.27     28.84    -26.80     20.00
    9.4239     30.27     28.86    -26.82     20.00
    9.4340     29.21     28.88    -27.90     20.00
    9.4442     29.13     28.91    -28.00     20.00
    9.4544     29.55     28.93    -27.60     20.00
    9.4645     29.80     28.95    -27.37     20.00
    9.4747     29.27     28.97    -27.92     20.00
    9.4848     29.71     28.99    -27.50     20.00
    9.4950     29.03     29.01    -28.20     20.00
    9.5052     29.59     29.03    -27.66     20.00
    9.5153     29.71     29.05    -27.56     20.00
    9.5255     29.78     29.07    -27.51     20.00
    9.5357     29.70     29.09    -27.62     20.00
    9.5458     29.23     29.11    -28.11     20.00
    9.5560     29.35     29.14    -28.01     20.00
    9.5662     30.04     29.16    -27.34     20.00
    9.5763     29.64     29.18    -27.76     20.00
    9.5865     29.22     29.20    -28.20     20.00
    9.5967     30.45     29.22    -26.99     20.00
    9.6068     29.98     29.24    -27.49     20.00
    9.6170     29.45     29.27    -28.04     20.00
    9.6271     29.88     29.29    -27.63     20.00
    9.6373     30.20     29.31    -27.33     20.00
    9.6475     29.82     29.33    -27.73     20.00
    9.6576     29.82     29.35    -27.76     20.00
    9.6678     29.85     29.38    -27.75     20.00
    9.6780     30.34     29.40    -27.28     20.00
    9.6881     30.43     29.42    -27.21     20.00
    9.6983     30.23     29.44    -27.44     20.00
    9.7085     30.19     29.47    -27.50     20.00
    9.7186     30.23     29.49    -27.48     20.00
    9.7288     30.12     29.51    -27.62     20.00
    9.7390     30.22     29.54    -27.54     20.00
    9.7491     30.49     29.56    -27.29     20.00
    9.7593     30.60     29.58    -27.20     20.00
    9.7694     30.87     29.61    -26.96     20.00
    9.7796     30.07     29.63    -27.78     20.00
    9.7898     29.85     29.65    -28.02     20.00
    9.7999     31.41     29.68    -26.49     20.00
    9.8101     30.90     29.70    -27.02     20.00
    9.8203     30.88     29.72    -27.07     20.00
    9.8304     29.56     29.75    -28.41     20.00
    9.8406     30.20     29.77    -27.79     20.00
    9.8508     31.06     29.79    -26.96     20.00
    9.8609     31.07     29.82    -26.97     20.00
    9.8711     30.26     29.84    -27.81     20.00
    9.8813     31.27     29.87    -26.82     20.00
    9.8914     30.98     29.89    -27.13     20.00
    9.9016     30.09     29.92    -28.05     20.00
    9.9118     30.51     29.94    -27.65     20.00
    9.9219     29.86     29.97    -28.33     20.00
    9.9321     31.88     29.99    -26.33     20.00
    9.9422     30.56     30.01    -27.68     20.00
    9.9524     30.88     30.04    -27.38     20.00
    9.9626     30.95     30.07    -27.34     20.00
    9.9727     32.48     30.09    -25.83     20.00
    9.9829     31.09     30.12    -27.25     20.00
    9.9931     31.24     30.14    -27.12     20.00
   10.0032     30.30     30.17    -28.09     20.00
   10.0134     31.18     30.19    -27.23     20.00
   10.0236     30.96     30.22    -27.48     20.00
   10.0337     30.51     30.24    -27.95     20.00
   10.0439     30.86     30.27    -27.63     20.00
   10.0541     31.01     30.29    -27.51     20.00
   10.0642     31.24     30.32    -27.30     20.00
   10.0744     30.90     30.35    -27.67     20.00
   10.0845     30.98     30.37    -27.62     20.00
   10.0947     31.37     30.40    -27.25     20.00
   10.1049     31.26     30.43    -27.39     20.00
   10.1150     31.40     30.45    -27.27     20.00
   10.1252     31.07     30.48    -27.63     20.00
   10.1354     30.98     30.51    -27.75     20.00
   10.1455     31.84     30.53    -26.91     20.00
   10.1557     31.38     30.56    -27.40     20.00
   10.1659     31.41     30.59    -27.40     20.00
   10.1760     31.23     30.61    -27.61     20.00
   10.1862     31.77     30.64    -27.09     20.00
   10.1964     30.60     30.67    -28.29     20.00
   10.2065     31.76     30.70    -27.16     20.00
   10.2167     32.11     30.72    -26.84     20.00
   10.2269     31.41     30.75    -27.56     20.00
   10.2370     31.84     30.78    -27.16     20.00
   10.2472     32.03     30.81    -27.00     20.00
   10.2573     31.69     30.84    -27.37     20.00
   10.2675     32.45     30.86    -26.64     20.00
   10.2777     32.20     30.89    -26.91     20.00
   10.2878     33.42     30.92    -25.72     20.00
   10.2980     32.07     30.95    -27.10     20.00
   10.3082     31.26     30.98    -27.94     20.00
   10.3183     32.27     31.01    -26.96     20.00
   10.3285     32.58     31.04    -26.68     20.00
   10.3387     31.85     31.06    -27.44     20.00
   10.3488     32.09     31.09    -27.23     20.00
   10.3590     31.80     31.12    -27.54     20.00
   10.3692     32.66     31.15    -26.71     20.00
   10.3793     32.16     31.18    -27.24     20.00
   10.3895     31.50     31.21    -27.93     20.00
   10.3996     31.54     31.24    -27.92     20.00
   10.4098     31.87     31.27    -27.62     20.00
   10.4200     32.47     31.30    -27.05     20.00
   10.4301     31.87     31.33    -27.68     20.00
   10.4403     31.52     31.36    -28.06     20.00
   10.4505     33.21     31.39    -26.40     20.00
   10.4606     31.72     31.42    -27.92     20.00
   10.4708     31.80     31.45    -27.87     20.00
   10.4810     33.03     31.48    -26.67     20.00
   10.4911     32.50     31.51    -27.24     20.00
   10.5013     32.94     31.54    -26.83     20.00
   10.5115     32.33     31.58    -27.47     20.00
   10.5216     32.26     31.61    -27.57     20.00
   10.5318     32.68     31.64    -27.18     20.00
   10.5420     33.45     31.67    -26.44     20.00
   10.5521     31.93     31.70    -27.99     20.00
   10.5623     32.99     31.73    -26.96     20.00
   10.5724     32.41     31.76    -27.58     20.00
   10.5826     31.85     31.80    -28.17     20.00
   10.5928     32.97     31.83    -27.08     20.00
   10.6029     33.65     31.86    -26.43     20.00
   10.6131     31.95     31.89    -28.16     20.00
   10.6233     32.31     31.92    -27.84     20.00
   10.6334     32.45     31.96    -27.73     20.00
   10.6436     32.54     31.99    -27.67     20.00
   10.6538     33.07     32.02    -27.17     20.00
   10.6639     33.40     32.06    -26.88     20.00
   10.6741     32.73     32.09    -27.58     20.00
   10.6843     33.18     32.12    -27.16     20.00
   10.6944     32.52     32.15    -27.86     20.00
   10.7046     33.15     32.19    -27.26     20.00
   10.7147     33.05     32.22    -27.39     20.00
   10.7249     34.22     32.26    -26.26     20.00
   10.7351     33.19     32.29    -27.32     20.00
   10.7452     32.63     32.32    -27.92     20.00
   10.7554     31.93     32.36    -28.65     20.00
   10.7656     32.98     32.39    -27.63     20.00
   10.7757     32.42     32.43    -28.23     20.00
   10.7859     32.95     32.46    -27.73     20.00
   10.7961     32.87     32.50    -27.85     20.00
   10.8062     32.84     32.53    -27.91     20.00
   10.8164     32.63     32.56    -28.16     20.00
   10.8266     33.52     32.60    -27.30     20.00
   10.8367     34.20     32.63    -26.66     20.00
   10.8469     32.66     32.67    -28.23     20.00
   10.8571     33.16     32.71    -27.77     20.00
   10.8672     34.68     32.74    -26.28     20.00
   10.8774     34.35     32.78    -26.65     20.00
   10.8875     33.53     32.81    -27.50     20.00
   10.8977     33.81     32.85    -27.26     20.00
   10.9079     34.16     32.88    -26.95     20.00
   10.9180     33.96     32.92    -27.18     20.00
   10.9282     33.48     32.96    -27.70     20.00
   10.9384     34.22     32.99    -27.00     20.00
   10.9485     33.95     33.03    -27.30     20.00
   10.9587     32.79     33.07    -28.50     20.00
   10.9689     33.62     33.10    -27.71     20.00
   10.9790     33.59     33.14    -27.77     20.00
   10.9892     33.42     33.18    -27.98     20.00
   10.9994     33.84     33.22    -27.60     20.00
   11.0095     33.43     33.25    -28.05     20.00
   11.0197     33.37     33.29    -28.14     20.00
   11.0298     34.27     33.33    -27.28     20.00
   11.0400     34.70     33.37    -26.89     20.00
   11.0502     34.40     33.41    -27.23     20.00
   11.0603     34.40     33.44    -27.27     20.00
   11.0705     34.01     33.48    -27.69     20.00
   11.0807     34.22     33.52    -27.52     20.00
   11.0908     33.93     33.56    -27.85     20.00
   11.1010     34.30     33.60    -27.52     20.00
   11.1112     34.43     33.64    -27.43     20.00
   11.1213     33.84     33.68    -28.06     20.00
   11.1315     34.66     33.72    -27.28     20.00
   11.1417     33.99     33.76    -27.99     20.00
   11.1518     34.98     33.80    -27.04     20.00
   11.1620     35.28     33.84    -26.78     20.00
   11.1722     34.41     33.88    -27.69     20.00
   11.1823     34.84     33.92    -27.30     20.00
   11.1925     33.68     33.96    -28.50     20.00
   11.2026     34.07     34.00    -28.15     20.00
   11.2128     34.71     34.04    -27.55     20.00
   11.2230     35.80     34.08    -26.50     20.00
   11.2331     33.97     34.12    -28.37     20.00
   11.2433     34.85     34.16    -27.53     20.00
   11.2535     34.32     34.20    -28.10     20.00
   11.2636     34.38     34.24    -28.08     20.00
   11.2738     34.65     34.28    -27.86     20.00
   11.2840     35.38     34.33    -27.17     20.00
   11.2941     34.45     34.37    -28.14     20.00
   11.3043     35.39     34.41    -27.24     20.00
   11.3145     35.63     34.45    -27.04     20.00
   11.3246     35.02     34.49    -27.70     20.00
   11.3348     35.45     34.54    -27.31     20.00
   11.3449     34.40     34.58    -28.40     20.00
   11.3551     34.65     34.62    -28.19     20.00
   11.3653     35.29     34.67    -27.60     20.00
   11.3754     35.36     34.71    -27.57     20.00
   11.3856     34.79     34.75    -28.18     20.00
   11.3958     34.82     34.80    -28.20     20.00
   11.4059     34.41     34.84    -28.65     20.00
   11.4161     34.35     34.88    -28.76     20.00
   11.4263     34.53     34.93    -28.62     20.00
   11.4364     34.49     34.97    -28.70     20.00
   11.4466     36.00     35.02    -27.24     20.00
   11.4568     34.71     35.06    -28.57     20.00
   11.4669     36.04     35.11    -27.29     20.00
   11.4771     35.67     35.15    -27.70     20.00
   11.4873     35.43     35.20    -27.99     20.00
   11.4974     35.53     35.24    -27.93     20.00
   11.5076     35.21     35.29    -28.30     20.00
   11.5177     36.40     35.33    -27.15     20.00
   11.5279     35.82     35.38    -27.78     20.00
   11.5381     35.29     35.42    -28.36     20.00
   11.5482     35.65     35.47    -28.04     20.00
   11.5584     35.62     35.52    -28.12     20.00
   11.5686     35.91     35.56    -27.87     20.00
   11.5787     36.46     35.61    -27.37     20.00
   11.5889     35.54     35.66    -28.34     20.00
   11.5991     36.45     35.70    -27.47     20.00
   11.6092     36.45     35.75    -27.52     20.00
   11.6194     36.38     35.80    -27.64     20.00
   11.6296     35.99     35.84    -28.08     20.00
   11.6397     35.63     35.89    -28.48     20.00
   11.6499     35.30     35.94    -28.86     20.00
   11.6600     35.84     35.99    -28.37     20.00
   11.6702     36.04     36.04    -28.22     20.00
   11.6804     36.67     36.08    -27.64     20.00
   11.6905     36.29     36.13    -28.07     20.00
   11.7007     36.48     36.18    -27.92     20.00
   11.7109     37.13     36.23    -27.32     20.00
   11.7210     35.45     36.28    -29.05     20.00
   11.7312     36.18     36.33    -28.37     20.00
   11.7414     36.68     36.38    -27.92     20.00
   11.7515     36.46     36.43    -28.19     20.00
   11.7617     36.26     36.48    -28.44     20.00
   11.7719     36.75     36.53    -28.00     20.00
   11.7820     35.94     36.58    -28.86     20.00
   11.7922     36.94     36.63    -27.91     20.00
   11.8023     36.52     36.68    -28.38     20.00
   11.8125     37.03     36.73    -27.92     20.00
   11.8227     37.53     36.78    -27.47     20.00
   11.8328     36.90     36.83    -28.15     20.00
   11.8430     36.87     36.88    -28.24     20.00
   11.8532     36.81     36.94    -28.35     20.00
   11.8633     37.05     36.99    -28.16     20.00
   11.8735     37.11     37.04    -28.15     20.00
   11.8837     37.54     37.09    -27.77     20.00
   11.8938     36.74     37.14    -28.63     20.00
   11.9040     37.54     37.20    -27.88     20.00
   11.9142     37.84     37.25    -27.63     20.00
   11.9243     37.65     37.30    -27.87     20.00
   11.9345     36.70     37.36    -28.88     20.00
   11.9447     37.98     37.41    -27.65     20.00
   11.9548     37.68     37.46    -28.00     20.00
   11.9650     37.37     37.52    -28.37     20.00
   11.9751     37.21     37.57    -28.58     20.00
   11.9853     37.27     37.62    -28.58     20.00
   11.9955     37.32     37.68    -28.58     20.00
   12.0056     37.75     37.73    -28.20     20.00
   12.0158     37.84     37.79    -28.17     20.00
   12.0260     37.78     37.84    -28.28     20.00
   12.0361     37.27     37.90    -28.85     20.00
   12.0463     38.41     37.95    -27.76     20.00
   12.0565     38.57     38.01    -27.66     20.00
   12.0666     38.48     38.06    -27.81     20.00
   12.0768     37.16     38.12    -29.18     20.00
   12.0870     38.32     38.18    -28.08     20.00
   12.0971     38.20     38.23    -28.25     20.00
   12.1073     38.04     38.29    -28.47     20.00
   12.1174     38.59     38.34    -27.98     20.00
   12.1276     37.98     38.40    -28.64     20.00
   12.1378     38.06     38.46    -28.62     20.00
   12.1479     37.56     38.52    -29.18     20.00
   12.1581     38.97     38.57    -27.83     20.00
   12.1683     39.48     38.63    -27.37     20.00
   12.1784     38.05     38.69    -28.86     20.00
   12.1886     39.35     38.75    -27.62     20.00
   12.1988     38.36     38.81    -28.67     20.00
   12.2089     38.23     38.86    -28.86     20.00
   12.2191     38.77     38.92    -28.37     20.00
   12.2293     39.25     38.98    -27.95     20.00
   12.2394     39.08     39.04    -28.18     20.00
   12.2496     38.66     39.10    -28.66     20.00
   12.2598     38.26     39.16    -29.12     20.00
   12.2699     38.51     39.22    -28.93     20.00
   12.2801     39.24     39.28    -28.26     20.00
   12.2902     39.34     39.34    -28.22     20.00
   12.3004     39.60     39.40    -28.02     20.00
   12.3106     39.37     39.46    -28.31     20.00
   12.3207     39.55     39.52    -28.19     20.00
   12.3309     38.96     39.58    -28.84     20.00
   12.3411     39.20     39.64    -28.67     20.00
   12.3512     39.80     39.71    -28.13     20.00
   12.3614     39.13     39.77    -28.86     20.00
   12.3716     39.04     39.83    -29.01     20.00
   12.3817     39.99     39.89    -28.12     20.00
   12.3919     40.00     39.95    -28.18     20.00
   12.4021     39.43     40.02    -28.81     20.00
   12.4122     39.07     40.08    -29.23     20.00
   12.4224     39.57     40.14    -28.79     20.00
   12.4325     39.89     40.21    -28.54     20.00
   12.4427     39.43     40.27    -29.06     20.00
   12.4529     39.89     40.33    -28.66     20.00
   12.4630     40.08     40.40    -28.54     20.00
   12.4732     39.71     40.46    -28.97     20.00
   12.4834     40.43     40.53    -28.32     20.00
   12.4935     40.71     40.59    -28.10     20.00
   12.5037     40.70     40.65    -28.18     20.00
   12.5139     40.75     40.72    -28.19     20.00
   12.5240     39.51     40.78    -29.50     20.00
   12.5342     40.62     40.85    -28.45     20.00
   12.5444     39.95     40.92    -29.19     20.00
   12.5545     39.97     40.98    -29.23     20.00
   12.5647     40.98     41.05    -28.29     20.00
   12.5749     41.31     41.11    -28.03     20.00
   12.5850     41.26     41.18    -28.14     20.00
   12.5952     40.17     41.25    -29.30     20.00
   12.6053     42.05     41.31    -27.49     20.00
   12.6155     40.71     41.38    -28.89     20.00
   12.6257     41.46     41.45    -28.21     20.00
   12.6358     42.36     41.52    -27.38     20.00
   12.6460     40.99     41.59    -28.82     20.00
   12.6562     40.71     41.65    -29.17     20.00
   12.6663     42.66     41.72    -27.28     20.00
   12.6765     40.71     41.79    -29.30     20.00
   12.6867     40.71     41.86    -29.37     20.00
   12.6968     41.24     41.93    -28.91     20.00
   12.7070     41.26     42.00    -28.96     20.00
   12.7172     41.18     42.07    -29.11     20.00
   12.7273     42.27     42.14    -28.09     20.00
   12.7375     42.38     42.21    -28.05     20.00
   12.7476     41.92     42.28    -28.58     20.00
   12.7578     41.09     42.35    -29.48     20.00
   12.7680     41.40     42.42    -29.24     20.00
   12.7781     41.97     42.49    -28.74     20.00
   12.7883     42.95     42.56    -27.83     20.00
   12.7985     41.59     42.63    -29.26     20.00
   12.8086     42.45     42.70    -28.48     20.00
   12.8188     41.79     42.78    -29.21     20.00
   12.8290     42.61     42.85    -28.46     20.00
   12.8391     41.70     42.92    -29.44     20.00
   12.8493     43.93     42.99    -27.29     20.00
   12.8595     42.51     43.07    -28.78     20.00
   12.8696     42.35     43.14    -29.01     20.00
   12.8798     41.95     43.21    -29.48     20.00
   12.8900     42.12     43.29    -29.39     20.00
   12.9001     42.84     43.36    -28.74     20.00
   12.9103     42.68     43.43    -28.98     20.00
   12.9204     43.13     43.51    -28.60     20.00
   12.9306     42.55     43.58    -29.25     20.00
   12.9408     42.98     43.66    -28.90     20.00
   12.9509     43.46     43.73    -28.49     20.00
   12.9611     43.18     43.81    -28.85     20.00
   12.9713     42.17     43.88    -29.94     20.00
   12.9814     43.04     43.96    -29.14     20.00
   12.9916     43.20     44.04    -29.06     20.00
   13.0018     43.87     44.11    -28.46     20.00
   13.0119     43.37     44.19    -29.04     20.00
   13.0221     43.34     44.27    -29.15     20.00
   13.0323     43.59     44.34    -28.97     20.00
   13.0424     44.07     44.42    -28.57     20.00
   13.0526     43.79     44.50    -28.93     20.00
   13.0627     42.47     44.57    -30.33     20.00
   13.0729     43.96     44.65    -28.91     20.00
   13.0831     43.70     44.73    -29.25     20.00
   13.0932     45.29     44.81    -27.74     20.00
   13.1034     44.37     44.89    -28.74     20.00
   13.1136     43.73     44.97    -29.46     20.00
   13.1237     44.18     45.05    -29.09     20.00
   13.1339     44.73     45.13    -28.62     20.00
   13.1441     44.70     45.21    -28.73     20.00
   13.1542     43.84     45.29    -29.67     20.00
   13.1644     44.20     45.37    -29.39     20.00
   13.1746     44.19     45.45    -29.48     20.00
   13.1847     45.10     45.53    -28.65     20.00
   13.1949     43.71     45.61    -30.12     20.00
   13.2051     44.72     45.69    -29.19     20.00
   13.2152     45.20     45.77    -28.79     20.00
   13.2254     44.53     45.85    -29.54     20.00
   13.2355     44.99     45.93    -29.17     20.00
   13.2457     45.13     46.02    -29.11     20.00
   13.2559     44.75     46.10    -29.57     20.00
   13.2660     45.15     46.18    -29.25     20.00
   13.2762     45.51     46.26    -28.98     20.00
   13.2864     45.77     46.35    -28.80     20.00
   13.2965     45.68     46.43    -28.97     20.00
   13.3067     45.84     46.52    -28.90     20.00
   13.3169     46.29     46.60    -28.53     20.00
   13.3270     46.68     46.68    -28.23     20.00
   13.3372     46.00     46.77    -28.99     20.00
   13.3474     45.85     46.85    -29.23     20.00
   13.3575     45.33     46.94    -29.83     20.00
   13.3677     46.33     47.02    -28.92     20.00
   13.3778     45.94     47.11    -29.39     20.00
   13.3880     46.57     47.19    -28.85     20.00
   13.3982     45.87     47.28    -29.63     20.00
   13.4083     45.98     47.37    -29.61     20.00
   13.4185     46.38     47.45    -29.30     20.00
   13.4287     46.85     47.54    -28.91     20.00
   13.4388     46.31     47.63    -29.54     20.00
   13.4490     46.59     47.72    -29.35     20.00
   13.4592     46.90     47.80    -29.13     20.00
   13.4693     46.11     47.89    -30.00     20.00
   13.4795     47.08     47.98    -29.12     20.00
   13.4897     45.95     48.07    -30.34     20.00
   13.4998     47.89     48.16    -28.49     20.00
   13.5100     47.34     48.25    -29.13     20.00
   13.5201     47.52     48.33    -29.04     20.00
   13.5303     47.35     48.42    -29.30     20.00
   13.5405     47.30     48.51    -29.44     20.00
   13.5506     47.23     48.60    -29.60     20.00
   13.5608     47.77     48.69    -29.15     20.00
   13.5710     48.13     48.78    -28.88     20.00
   13.5811     47.51     48.87    -29.59     20.00
   13.5913     48.71     48.97    -28.48     20.00
   13.6015     48.30     49.06    -28.98     20.00
   13.6116     48.66     49.15    -28.71     20.00
   13.6218     48.67     49.24    -28.79     20.00
   13.6320     46.85     49.33    -30.71     20.00
   13.6421     48.56     49.43    -29.09     20.00
   13.6523     47.85     49.52    -29.89     20.00
   13.6625     48.54     49.61    -29.29     20.00
   13.6726     48.80     49.70    -29.13     20.00
   13.6828     47.99     49.80    -30.03     20.00
   13.6929     47.68     49.89    -30.43     20.00
   13.7031     49.54     49.99    -28.67     20.00
   13.7133     48.91     50.08    -29.39     20.00
   13.7234     49.24     50.17    -29.16     20.00
   13.7336     50.29     50.27    -28.20     20.00
   13.7438     49.17     50.36    -29.42     20.00
   13.7539     48.62     50.46    -30.06     20.00
   13.7641     49.51     50.55    -29.27     20.00
   13.7743     49.83     50.65    -29.04     20.00
   13.7844     49.66     50.75    -29.31     20.00
   13.7946     49.45     50.84    -29.62     20.00
   13.8048     50.54     50.94    -28.62     20.00
   13.8149     50.88     51.04    -28.38     20.00
   13.8251     49.67     51.13    -29.69     20.00
   13.8352     50.24     51.23    -29.21     20.00
   13.8454     50.68     51.33    -28.87     20.00
   13.8556     50.20     51.43    -29.45     20.00
   13.8657     50.34     51.52    -29.41     20.00
   13.8759     49.40     51.62    -30.45     20.00
   13.8861     50.62     51.72    -29.33     20.00
   13.8962     51.24     51.82    -28.80     20.00
   13.9064     51.29     51.92    -28.85     20.00
   13.9166     50.58     52.02    -29.66     20.00
   13.9267     50.08     52.12    -30.26     20.00
   13.9369     50.97     52.22    -29.47     20.00
   13.9471     50.73     52.32    -29.81     20.00
   13.9572     50.35     52.42    -30.29     20.00
   13.9674     50.63     52.52    -30.12     20.00
   13.9776     51.73     52.62    -29.12     20.00
   13.9877     50.75     52.73    -30.20     20.00
   13.9979     51.26     52.83    -29.79     20.00
   14.0080     52.63     52.93    -28.52     20.00
   14.0182     51.60     53.03    -29.65     20.00
   14.0284     52.32     53.13    -29.04     20.00
   14.0385     52.56     53.24    -28.90     20.00
   14.0487     51.26     53.34    -30.30     20.00
   14.0589     51.62     53.44    -30.05     20.00
   14.0690     52.60     53.55    -29.17     20.00
   14.0792     53.24     53.65    -28.63     20.00
   14.0894     52.36     53.76    -29.62     20.00
   14.0995     52.14     53.86    -29.94     20.00
   14.1097     52.01     53.97    -30.18     20.00
   14.1199     52.11     54.07    -30.18     20.00
   14.1300     53.02     54.18    -29.38     20.00
   14.1402     52.55     54.28    -29.95     20.00
   14.1503     52.77     54.39    -29.84     20.00
   14.1605     52.35     54.49    -30.37     20.00
   14.1707     52.81     54.60    -30.01     20.00
   14.1808     53.21     54.71    -29.72     20.00
   14.1910     52.34     54.81    -30.70     20.00
   14.2012     54.85     54.92    -28.29     20.00
   14.2113     52.28     55.03    -30.97     20.00
   14.2215     54.05     55.14    -29.31     20.00
   14.2317     54.12     55.24    -29.35     20.00
   14.2418     53.37     55.35    -30.20     20.00
   14.2520     53.88     55.46    -29.80     20.00
   14.2622     53.74     55.57    -30.05     20.00
   14.2723     54.45     55.68    -29.45     20.00
   14.2825     54.13     55.79    -29.88     20.00
   14.2927     54.31     55.90    -29.81     20.00
   14.3028     55.17     56.01    -29.06     20.00
   14.3130     54.86     56.12    -29.48     20.00
   14.3231     54.65     56.23    -29.80     20.00
   14.3333     53.63     56.34    -30.93     20.00
   14.3435     56.14     56.45    -28.53     20.00
   14.3536     56.00     56.56    -28.78     20.00
   14.3638     56.11     56.67    -28.79     20.00
   14.3740     55.82     56.79    -29.19     20.00
   14.3841     54.59     56.90    -30.53     20.00
   14.3943     54.22     57.01    -31.01     20.00
   14.4045     54.29     57.12    -31.06     20.00
   14.4146     56.26     57.24    -29.20     20.00
   14.4248     56.16     57.35    -29.41     20.00
   14.4350     56.24     57.46    -29.45     20.00
   14.4451     55.78     57.58    -30.02     20.00
   14.4553     55.74     57.69    -30.17     20.00
   14.4654     56.82     57.81    -29.21     20.00
   14.4756     55.93     57.92    -30.21     20.00
   14.4858     56.41     58.04    -29.85     20.00
   14.4959     57.90     58.15    -28.47     20.00
   14.5061     55.96     58.27    -30.53     20.00
   14.5163     56.90     58.38    -29.70     20.00
   14.5264     57.54     58.50    -29.18     20.00
   14.5366     57.54     58.61    -29.30     20.00
   14.5468     57.61     58.73    -29.34     20.00
   14.5569     58.23     58.85    -28.84     20.00
   14.5671     58.58     58.97    -28.61     20.00
   14.5773     57.11     59.08    -30.20     20.00
   14.5874     58.69     59.20    -28.73     20.00
   14.5976     58.09     59.32    -29.45     20.00
   14.6078     58.88     59.44    -28.78     20.00
   14.6179     59.46     59.55    -28.32     20.00
   14.6281     58.85     59.67    -29.05     20.00
   14.6382     58.43     59.79    -29.58     20.00
   14.6484     57.95     59.91    -30.18     20.00
   14.6586     59.01     60.03    -29.24     20.00
   14.6687     59.36     60.15    -29.01     20.00
   14.6789     59.74     60.27    -28.75     20.00
   14.6891     59.07     60.39    -29.54     20.00
   14.6992     58.23     60.51    -30.50     20.00
   14.7094     59.30     60.63    -29.56     20.00
   14.7196     58.48     60.76    -30.50     20.00
   14.7297     60.02     60.88    -29.08     20.00
   14.7399     60.84     61.00    -28.38     20.00
   14.7501     60.59     61.12    -28.75     20.00
   14.7602     60.44     61.24    -29.02     20.00
   14.7704     60.13     61.37    -29.46     20.00
   14.7805     59.88     61.49    -29.83     20.00
   14.7907     60.20     61.61    -29.63     20.00
   14.8009     61.78     61.74    -28.18     20.00
   14.8110     60.79     61.86    -29.29     20.00
   14.8212     60.95     61.98    -29.25     20.00
   14.8314     60.48     62.11    -29.85     20.00
   14.8415     60.58     62.23    -29.87     20.00
   14.8517     60.60     62.36    -29.98     20.00
   14.8619     61.09     62.48    -29.61     20.00
   14.8720     60.47     62.61    -30.36     20.00
   14.8822     61.27     62.73    -29.68     20.00
   14.8924     60.96     62.86    -30.12     20.00
   14.9025     61.79     62.98    -29.42     20.00
   14.9127     61.43     63.11    -29.90     20.00
   14.9229     61.11     63.24    -30.35     20.00
   14.9330     61.51     63.36    -30.08     20.00
   14.9432     61.42     63.49    -30.29     20.00
   14.9533     61.66     63.62    -30.18     20.00
   14.9635     61.81     63.75    -30.16     20.00
   14.9737     62.21     63.88    -29.89     20.00
   14.9838     62.71     64.00    -29.51     20.00
   14.9940     62.85     64.13    -29.50     20.00
   15.0042     62.43     64.26    -30.05     20.00
   15.0143     62.80     64.39    -29.81     20.00
   15.0245     63.98     64.52    -28.76     20.00
   15.0347     62.96     64.65    -29.91     20.00
   15.0448     64.17     64.78    -28.83     20.00
   15.0550     63.03     64.91    -30.10     20.00
   15.0652     63.80     65.04    -29.46     20.00
   15.0753     64.52     65.17    -28.87     20.00
   15.0855     64.01     65.30    -29.51     20.00
   15.0956     65.01     65.43    -28.64     20.00
   15.1058     64.61     65.56    -29.18     20.00
   15.1160     63.88     65.70    -30.04     20.00
   15.1261     64.37     65.83    -29.68     20.00
   15.1363     66.16     65.96    -28.02     20.00
   15.1465     65.22     66.09    -29.09     20.00
   15.1566     63.55     66.22    -30.90     20.00
   15.1668     65.38     66.36    -29.20     20.00
   15.1770     66.36     66.49    -28.35     20.00
   15.1871     65.08     66.63    -29.77     20.00
   15.1973     65.68     66.76    -29.30     20.00
   15.2075     66.13     66.89    -28.99     20.00
   15.2176     65.96     67.03    -29.29     20.00
   15.2278     66.70     67.16    -28.68     20.00
   15.2380     65.23     67.30    -30.29     20.00
   15.2481     66.38     67.43    -29.27     20.00
   15.2583     67.69     67.57    -28.10     20.00
   15.2684     66.73     67.70    -29.20     20.00
   15.2786     67.76     67.84    -28.30     20.00
   15.2888     67.19     67.98    -29.01     20.00
   15.2989     67.63     68.11    -28.70     20.00
   15.3091     66.87     68.25    -29.60     20.00
   15.3193     67.09     68.39    -29.52     20.00
   15.3294     67.38     68.52    -29.37     20.00
   15.3396     67.03     68.66    -29.85     20.00
   15.3498     69.43     68.80    -27.59     20.00
   15.3599     68.61     68.94    -28.55     20.00
   15.3701     68.65     69.08    -28.65     20.00
   15.3803     68.52     69.22    -28.92     20.00
   15.3904     67.15     69.35    -30.43     20.00
   15.4006     66.43     69.49    -31.29     20.00
   15.4107     68.05     69.63    -29.80     20.00
   15.4209     68.46     69.77    -29.53     20.00
   15.4311     68.41     69.91    -29.72     20.00
   15.4412     70.65     70.05    -27.62     20.00
   15.4514     69.00     70.19    -29.41     20.00
   15.4616     70.01     70.33    -28.55     20.00
   15.4717     69.57     70.47    -29.13     20.00
   15.4819     69.01     70.62    -29.83     20.00
   15.4921     70.50     70.76    -28.48     20.00
   15.5022     70.59     70.90    -28.53     20.00
   15.5124     71.09     71.04    -28.17     20.00
   15.5226     70.41     71.18    -29.00     20.00
   15.5327     70.74     71.33    -28.81     20.00
   15.5429     71.45     71.47    -28.24     20.00
   15.5530     71.26     71.61    -28.57     20.00
   15.5632     70.46     71.75    -29.52     20.00
   15.5734     71.68     71.90    -28.44     20.00
   15.5835     70.59     72.04    -29.67     20.00
   15.5937     71.26     72.19    -29.15     20.00
   15.6039     71.16     72.33    -29.39     20.00
   15.6140     72.21     72.48    -28.49     20.00
   15.6242     72.77     72.62    -28.07     20.00
   15.6344     73.40     72.77    -27.59     20.00
   15.6445     71.93     72.91    -29.20     20.00
   15.6547     72.17     73.06    -29.11     20.00
   15.6649     72.65     73.20    -28.78     20.00
   15.6750     72.80     73.35    -28.77     20.00
   15.6852     73.05     73.50    -28.67     20.00
   15.6954     71.45     73.64    -30.41     20.00
   15.7055     73.03     73.79    -28.98     20.00
   15.7157     72.89     73.94    -29.27     20.00
   15.7258     73.82     74.08    -28.48     20.00
   15.7360     73.26     74.23    -29.19     20.00
   15.7462     74.10     74.38    -28.50     20.00
   15.7563     73.35     74.53    -29.40     20.00
   15.7665     75.60     74.68    -27.30     20.00
   15.7767     74.71     74.82    -28.34     20.00
   15.7868     74.58     74.97    -28.62     20.00
   15.7970     76.19     75.12    -27.15     20.00
   15.8072     75.95     75.27    -27.54     20.00
   15.8173     74.04     75.42    -29.60     20.00
   15.8275     75.05     75.57    -28.74     20.00
   15.8377     75.59     75.72    -28.35     20.00
   15.8478     75.24     75.87    -28.85     20.00
   15.8580     76.07     76.02    -28.18     20.00
   15.8681     75.70     76.17    -28.70     20.00
   15.8783     75.21     76.33    -29.34     20.00
   15.8885     77.51     76.48    -27.19     20.00
   15.8986     76.21     76.63    -28.64     20.00
   15.9088     77.29     76.78    -27.71     20.00
   15.9190     75.83     76.93    -29.33     20.00
   15.9291     76.96     77.09    -28.35     20.00
   15.9393     78.08     77.24    -27.38     20.00
   15.9495     77.76     77.39    -27.85     20.00
   15.9596     77.70     77.55    -28.07     20.00
   15.9698     77.01     77.70    -28.91     20.00
   15.9800     77.34     77.85    -28.74     20.00
   15.9901     78.38     78.01    -27.85     20.00
   16.0003     79.79     78.16    -26.59     20.00
   16.0105     79.03     78.32    -27.51     20.00
   16.0206     79.13     78.47    -27.56     20.00
   16.0308     78.26     78.63    -28.59     20.00
   16.0409     79.24     78.78    -27.76     20.00
   16.0511     79.33     78.94    -27.83     20.00
   16.0613     78.14     79.09    -29.18     20.00
   16.0714     79.73     79.25    -27.74     20.00
   16.0816     79.87     79.41    -27.76     20.00
   16.0918     78.61     79.56    -29.18     20.00
   16.1019     80.80     79.72    -27.14     20.00
   16.1121     80.43     79.88    -27.67     20.00
   16.1223     79.72     80.04    -28.54     20.00
   16.1324     80.78     80.19    -27.63     20.00
   16.1426     81.38     80.35    -27.19     20.00
   16.1528     81.55     80.51    -27.18     20.00
   16.1629     81.76     80.67    -27.13     20.00
   16.1731     81.66     80.83    -27.39     20.00
   16.1832     82.01     80.99    -27.20     20.00
   16.1934     81.99     81.15    -27.38     20.00
   16.2036     82.70     81.31    -26.83     20.00
   16.2137     81.04     81.47    -28.65     20.00
   16.2239     82.82     81.63    -27.03     20.00
   16.2341     83.29     81.79    -26.72     20.00
   16.2442     82.68     81.95    -27.49     20.00
   16.2544     83.46     82.11    -26.87     20.00
   16.2646     83.44     82.27    -27.05     20.00
   16.2747     83.86     82.43    -26.79     20.00
   16.2849     83.70     82.59    -27.12     20.00
   16.2951     83.26     82.76    -27.72     20.00
   16.3052     84.29     82.92    -26.85     20.00
   16.3154     84.04     83.08    -27.26     20.00
   16.3256     85.12     83.25    -26.35     20.00
   16.3357     84.36     83.41    -27.27     20.00
   16.3459     86.23     83.57    -25.56     20.00
   16.3560     85.29     83.74    -26.67     20.00
   16.3662     83.12     83.90    -29.00     20.00
   16.3764     85.86     84.07    -26.43     20.00
   16.3865     85.56     84.23    -26.89     20.00
   16.3967     85.91     84.40    -26.71     20.00
   16.4069     85.20     84.56    -27.58     20.00
   16.4170     85.95     84.73    -27.00     20.00
   16.4272     86.38     84.89    -26.73     20.00
   16.4374     86.96     85.06    -26.32     20.00
   16.4475     87.21     85.23    -26.24     20.00
   16.4577     87.48     85.39    -26.14     20.00
   16.4679     86.59     85.56    -27.19     20.00
   16.4780     86.52     85.73    -27.43     20.00
   16.4882     87.84     85.90    -26.28     20.00
   16.4983     87.48     86.06    -26.81     20.00
   16.5085     88.54     86.23    -25.92     20.00
   16.5187     87.35     86.40    -27.28     20.00
   16.5288     87.53     86.57    -27.26     20.00
   16.5390     89.01     86.74    -25.95     20.00
   16.5492     88.52     86.91    -26.61     20.00
   16.5593     89.88     87.08    -25.42     20.00
   16.5695     90.22     87.25    -25.26     20.00
   16.5797     91.15     87.43    -24.50     20.00
   16.5898     90.62     87.60    -25.20     20.00
   16.6000     91.01     87.77    -24.98     20.00
   16.6102     92.40     87.94    -23.76     20.00
   16.6203     90.99     88.11    -25.34     20.00
   16.6305     90.09     88.29    -26.42     20.00
   16.6407     90.68     88.46    -26.00     20.00
   16.6508     91.25     88.63    -25.61     20.00
   16.6610     92.75     88.81    -24.28     20.00
   16.6711     91.15     88.98    -26.05     20.00
   16.6813     91.62     89.16    -25.76     20.00
   16.6915     93.71     89.33    -23.85     20.00
   16.7016     92.62     89.51    -25.11     20.00
   16.7118     93.20     89.68    -24.71     20.00
   16.7220     93.34     89.86    -24.74     20.00
   16.7321     94.07     90.04    -24.19     20.00
   16.7423     94.28     90.22    -24.16     20.00
   16.7525     92.76     90.40    -25.86     20.00
   16.7626     94.75     90.57    -24.04     20.00
   16.7728     93.50     90.75    -25.47     20.00
   16.7830     94.77     90.93    -24.38     20.00
   16.7931     93.93     91.11    -25.40     20.00
   16.8033     94.34     91.29    -25.17     20.00
   16.8134     94.35     91.47    -25.34     20.00
   16.8236     96.84     91.65    -23.04     20.00
   16.8338     95.77     91.84    -24.29     20.00
   16.8439     95.35     92.02    -24.89     20.00
   16.8541     96.98     92.20    -23.44     20.00
   16.8643     95.86     92.39    -24.75     20.00
   16.8744     97.10     92.57    -23.69     20.00
   16.8846     97.57     92.75    -23.41     20.00
   16.8948     95.85     92.94    -25.31     20.00
   16.9049     96.07     93.12    -25.28     20.00
   16.9151     97.29     93.31    -24.24     20.00
   16.9253     97.98     93.50    -23.74     20.00
   16.9354     97.15     93.68    -24.76     20.00
   16.9456     97.85     93.87    -24.25     20.00
   16.9558     97.55     94.06    -24.73     20.00
   16.9659     96.85     94.25    -25.62     20.00
   16.9761     97.26     94.44    -25.40     20.00
   16.9862     97.19     94.63    -25.66     20.00
   16.9964     98.54     94.82    -24.51     20.00
   17.0066     98.12     95.02    -25.12     20.00
   17.0167     98.42     95.21    -25.01     20.00
   17.0269     99.04     95.40    -24.58     20.00
   17.0371    100.82     95.60    -23.00     20.00
   17.0472    100.29     95.79    -23.72     20.00
   17.0574     99.53     95.99    -24.68     20.00
   17.0676     98.59     96.19    -25.82     20.00
   17.0777    100.50     96.38    -24.10     20.00
   17.0879    100.64     96.58    -24.16     20.00
   17.0981    100.33     96.78    -24.67     20.00
   17.1082     99.59     96.98    -25.61     20.00
   17.1184    100.37     97.18    -25.03     20.00
   17.1285    101.55     97.38    -24.06     20.00
   17.1387    100.36     97.59    -25.45     20.00
   17.1489    101.32     97.79    -24.69     20.00
   17.1590    100.76     98.00    -25.46     20.00
   17.1692    100.48     98.20    -25.95     20.00
   17.1794    100.24     98.41    -26.39     20.00
   17.1895    100.71     98.62    -26.13     20.00
   17.1997    102.67     98.83    -24.38     20.00
   17.2099    103.61     99.04    -23.65     20.00
   17.2200    102.20     99.25    -25.27     20.00
   17.2302    102.60     99.46    -25.09     20.00
   17.2404    104.37     99.68    -23.53     20.00
   17.2505    103.02     99.89    -25.10     20.00
   17.2607    103.09    100.11    -25.24     20.00
   17.2709    103.30    100.33    -25.25     20.00
   17.2810    104.91    100.55    -23.86     20.00
   17.2912    104.05    100.77    -24.94     20.00
   17.3013    103.90    100.99    -25.32     20.00
   17.3115    102.95    101.22    -26.49     20.00
   17.3217    104.70    101.45    -24.97     20.00
   17.3318    102.85    101.67    -27.04     20.00
   17.3420    104.42    101.90    -25.70     20.00
   17.3522    104.68    102.13    -25.68     20.00
   17.3623    104.52    102.37    -26.07     20.00
   17.3725    106.54    102.60    -24.28     20.00
   17.3827    105.96    102.84    -25.10     20.00
   17.3928    107.09    103.08    -24.21     20.00
   17.4030    105.70    103.32    -25.84     20.00
   17.4132    107.05    103.57    -24.74     20.00
   17.4233    107.30    103.81    -24.73     20.00
   17.4335    106.70    104.06    -25.58     20.00
   17.4436    109.44    104.31    -23.09     20.00
   17.4538    109.12    104.57    -23.67     20.00
   17.4640    106.76    104.83    -26.29     20.00
   17.4741    108.54    105.08    -24.77     20.00
   17.4843    106.90    105.35    -26.67     20.00
   17.4945    107.70    105.62    -26.14     20.00
   17.5046    108.23    105.89    -25.88     20.00
   17.5148    109.51    106.16    -24.87     20.00
   17.5250    107.88    106.44    -26.78     20.00
   17.5351    109.35    106.72    -25.59     20.00
   17.5453    110.98    107.01    -24.25     20.00
   17.5555    110.04    107.30    -25.48     20.00
   17.5656    111.23    107.59    -24.59     20.00
   17.5758    109.99    107.90    -26.13     20.00
   17.5859    111.01    108.20    -25.41     20.00
   17.5961    113.66    108.51    -23.08     20.00
   17.6063    113.52    108.83    -23.54     20.00
   17.6164    113.48    109.16    -23.90     20.00
   17.6266    112.98    109.49    -24.73     20.00
   17.6368    115.17    109.83    -22.88     20.00
   17.6469    114.68    110.17    -23.72     20.00
   17.6571    114.05    110.53    -24.70     20.00
   17.6673    117.10    110.89    -22.02     20.00
   17.6774    115.32    111.26    -24.17     20.00
   17.6876    115.17    111.65    -24.70     20.00
   17.6978    115.43    112.04    -24.83     20.00
   17.7079    115.30    112.44    -25.37     20.00
   17.7181    117.90    112.86    -23.18     20.00
   17.7283    119.26    113.29    -22.25     20.00
   17.7384    116.99    113.73    -24.96     20.00
   17.7486    118.50    114.18    -23.90     20.00
   17.7587    119.63    114.65    -23.24     20.00
   17.7689    118.37    115.13    -24.98     20.00
   17.7791    120.53    115.63    -23.33     20.00
   17.7892    121.08    116.15    -23.29     20.00
   17.7994    121.98    116.68    -22.93     20.00
   17.8096    122.57    117.24    -22.89     20.00
   17.8197    121.74    117.81    -24.29     20.00
   17.8299    122.34    118.41    -24.29     20.00
   17.8401    122.20    119.03    -25.05     20.00
   17.8502    124.47    119.67    -23.42     20.00
   17.8604    124.63    120.34    -23.93     20.00
   17.8706    124.36    121.03    -24.89     20.00
   17.8807    126.15    121.75    -23.82     20.00
   17.8909    128.13    122.50    -22.59     20.00
   17.9010    127.12    123.27    -24.37     20.00
   17.9112    130.35    124.09    -21.96     20.00
   17.9214    128.79    124.93    -24.36     20.00
   17.9315    129.34    125.80    -24.68     20.00
   17.9417    132.56    126.72    -22.38     20.00
   17.9519    131.74    127.67    -24.15     20.00
   17.9620    133.54    128.65    -23.34     20.00
   17.9722    134.09    129.69    -23.82     20.00
   17.9824    133.13    130.76    -25.85     20.00
   17.9925    135.71    131.87    -24.38     20.00
   18.0027    135.45    133.03    -25.80     20.00
   18.0129    137.84    134.24    -24.62     20.00
   18.0230    139.26    135.48    -24.44     20.00
   18.0332    139.01    136.78    -25.99     20.00
   18.0434    141.03    138.14    -25.33     20.00
   18.0535    140.98    139.53    -26.77     20.00
   18.0637    144.60    140.99    -24.61     20.00
   18.0738    143.99    142.49    -26.72     20.00
   18.0840    145.71    144.06    -26.57     20.00
   18.0942    148.61    145.68    -25.30     20.00
   18.1043    148.12    147.35    -27.45     20.00
   18.1145    148.65    149.09    -28.66     20.00
   18.1247    153.98    150.89    -25.14     20.00
   18.1348    153.50    152.74    -27.46     20.00
   18.1450    153.82    154.66    -29.06     20.00
   18.1552    156.37    156.64    -28.49     20.00
   18.1653    158.44    158.67    -28.45     20.00
   18.1755    159.77    160.77    -29.22     20.00
   18.1857    161.60    162.94    -29.56     20.00
   18.1958    163.31    165.15    -30.06     20.00
   18.2060    164.35    167.43    -31.31     20.00
   18.2161    168.22    169.76    -29.76     20.00
   18.2263    170.77    172.17    -29.62     20.00
   18.2365    171.51    174.64    -31.35     20.00
   18.2466    176.00    177.14    -29.36     20.00
   18.2568    177.58    179.72    -30.37     20.00
   18.2670    179.43    182.36    -31.15     20.00
   18.2771    185.62    185.02    -27.63     20.00
   18.2873    184.68    187.76    -31.31     20.00
   18.2975    185.65    190.55    -33.12     20.00
   18.3076    190.01    193.36    -31.57     20.00
   18.3178    193.24    196.23    -31.21     20.00
   18.3280    195.41    199.14    -31.95     20.00
   18.3381    200.35    202.06    -29.93     20.00
   18.3483    201.70    205.03    -31.55     20.00
   18.3585    200.68    208.03    -35.57     20.00
   18.3686    206.38    211.02    -32.86     20.00
   18.3788    209.71    214.05    -32.57     20.00
   18.3889    210.30    217.06    -34.99     20.00
   18.3991    218.37    220.10    -29.96     20.00
   18.4093    218.55    223.14    -32.81     20.00
   18.4194    220.78    226.13    -33.57     20.00
   18.4296    223.44    229.13    -33.91     20.00
   18.4398    228.37    232.09    -31.94     20.00
   18.4499    229.77    234.99    -33.44     20.00
   18.4601    233.52    237.86    -32.56     20.00
   18.4703    238.44    240.67    -30.45     20.00
   18.4804    238.58    243.38    -33.03     20.00
   18.4906    243.30    246.04    -30.96     20.00
   18.5008    246.52    248.60    -30.30     20.00
   18.5109    244.59    251.03    -34.67     20.00
   18.5211    252.73    253.37    -28.86     20.00
   18.5312    254.03    255.55    -29.75     20.00
   18.5414    254.60    257.62    -31.24     20.00
   18.5516    257.43    259.53    -30.32     20.00
   18.5617    259.56    261.26    -29.92     20.00
   18.5719    262.61    262.83    -28.44     20.00
   18.5821    265.68    264.22    -26.76     20.00
   18.5922    268.05    265.40    -25.58     20.00
   18.6024    266.70    266.40    -27.92     20.00
   18.6126    265.85    267.19    -29.56     20.00
   18.6227    268.16    267.76    -27.82     20.00
   18.6329    267.54    268.12    -28.80     20.00
   18.6431    271.18    268.26    -25.31     20.00
   18.6532    271.67    268.19    -24.74     20.00
   18.6634    270.21    267.90    -25.91     20.00
   18.6736    270.65    267.40    -24.97     20.00
   18.6837    271.26    266.69    -23.65     20.00
   18.6939    266.80    265.78    -27.20     20.00
   18.7040    269.89    264.67    -23.01     20.00
   18.7142    267.84    263.37    -23.76     20.00
   18.7244    262.98    261.89    -27.13     20.00
   18.7345    262.43    260.26    -26.05     20.00
   18.7447    265.32    258.45    -21.35     20.00
   18.7549    258.50    256.49    -26.21     20.00
   18.7650    259.65    254.42    -22.99     20.00
   18.7752    256.59    252.20    -23.83     20.00
   18.7854    252.16    249.87    -25.93     20.00
   18.7955    248.96    247.46    -26.73     20.00
   18.8057    249.96    244.94    -23.21     20.00
   18.8159    243.51    242.35    -27.06     20.00
   18.8260    244.43    239.71    -23.50     20.00
   18.8362    241.05    236.99    -24.16     20.00
   18.8463    235.68    234.25    -26.79     20.00
   18.8565    231.62    231.45    -28.05     20.00
   18.8667    231.09    228.62    -25.75     20.00
   18.8768    225.39    225.79    -28.63     20.00
   18.8870    225.60    222.94    -25.56     20.00
   18.8972    221.16    220.07    -27.14     20.00
   18.9073    215.63    217.24    -29.83     20.00
   18.9175    214.12    214.40    -28.50     20.00
   18.9277    211.63    211.56    -28.16     20.00
   18.9378    207.20    208.78    -29.80     20.00
   18.9480    204.41    206.00    -29.81     20.00
   18.9582    203.72    203.25    -27.75     20.00
   18.9683    199.05    200.56    -29.73     20.00
   18.9785    196.55    197.89    -29.56     20.00
   18.9887    194.23    195.25    -29.25     20.00
   18.9988    189.31    192.69    -31.61     20.00
   19.0090    187.78    190.16    -30.60     20.00
   19.0191    186.51    187.70    -29.41     20.00
   19.0293    182.70    185.26    -30.78     20.00
   19.0395    181.88    182.89    -29.23     20.00
   19.0496    177.60    180.59    -31.21     20.00
   19.0598    175.68    178.33    -30.87     20.00
   19.0700    174.47    176.12    -29.88     20.00
   19.0801    171.10    174.00    -31.12     20.00
   19.0903    169.73    171.92    -30.41     20.00
   19.1005    168.64    169.90    -29.48     20.00
   19.1106    166.80    167.96    -29.38     20.00
   19.1208    163.74    166.06    -30.54     20.00
   19.1310    163.82    164.22    -28.62     20.00
   19.1411    159.90    162.46    -30.79     20.00
   19.1513    157.66    160.75    -31.31     20.00
   19.1614    157.12    159.11    -30.21     20.00
   19.1716    155.92    157.51    -29.82     20.00
   19.1818    153.30    155.98    -30.90     20.00
   19.1919    152.29    154.51    -30.44     20.00
   19.2021    151.53    153.09    -29.78     20.00
   19.2123    149.66    151.72    -30.29     20.00
   19.2224    148.65    150.43    -30.00     20.00
   19.2326    147.62    149.17    -29.77     20.00
   19.2428    146.07    147.96    -30.12     20.00
   19.2529    147.43    146.82    -27.61     20.00
   19.2631    144.32    145.72    -29.62     20.00
   19.2733    143.03    144.66    -29.85     20.00
   19.2834    143.76    143.66    -28.12     20.00
   19.2936    141.39    142.69    -29.53     20.00
   19.3038    140.99    141.77    -29.00     20.00
   19.3139    139.79    140.90    -29.34     20.00
   19.3241    140.45    140.07    -27.84     20.00
   19.3342    138.76    139.28    -28.74     20.00
   19.3444    137.60    138.51    -29.14     20.00
   19.3546    136.41    137.79    -29.60     20.00
   19.3647    135.63    137.11    -29.70     20.00
   19.3749    135.32    136.45    -29.36     20.00
   19.3851    133.38    135.83    -30.67     20.00
   19.3952    133.02    135.24    -30.45     20.00
   19.4054    133.88    134.68    -29.02     20.00
   19.4156    132.38    134.15    -29.99     20.00
   19.4257    133.18    133.64    -28.68     20.00
   19.4359    130.28    133.16    -31.10     20.00
   19.4461    130.94    132.70    -29.98     20.00
   19.4562    129.48    132.27    -31.01     20.00
   19.4664    130.41    131.86    -29.67     20.00
   19.4765    131.00    131.47    -28.69     20.00
   19.4867    128.51    131.10    -30.81     20.00
   19.4969    129.25    130.74    -29.71     20.00
   19.5070    126.67    130.41    -31.96     20.00
   19.5172    128.85    130.09    -29.46     20.00
   19.5274    128.36    129.79    -29.65     20.00
   19.5375    128.53    129.50    -29.19     20.00
   19.5477    126.00    129.23    -31.45     20.00
   19.5579    126.37    128.97    -30.82     20.00
   19.5680    128.04    128.72    -28.91     20.00
   19.5782    124.53    128.49    -32.18     20.00
   19.5884    126.51    128.27    -29.98     20.00
   19.5985    125.24    128.06    -31.04     20.00
   19.6087    125.53    127.86    -30.55     20.00
   19.6188    126.55    127.67    -29.34     20.00
   19.6290    123.97    127.49    -31.74     20.00
   19.6392    123.20    127.31    -32.33     20.00
   19.6493    124.82    127.15    -30.55     20.00
   19.6595    124.83    126.99    -30.39     20.00
   19.6697    123.90    126.85    -31.17     20.00
   19.6798    123.76    126.71    -31.17     20.00
   19.6900    123.83    126.58    -30.97     20.00
   19.7002    123.16    126.45    -31.51     20.00
   19.7103    124.54    126.33    -30.01     20.00
   19.7205    124.82    126.22    -29.62     20.00
   19.7307    124.44    126.12    -29.90     20.00
   19.7408    125.30    126.02    -28.94     20.00
   19.7510    123.09    125.93    -31.06     20.00
   19.7612    125.48    125.84    -28.58     20.00
   19.7713    124.16    125.76    -29.82     20.00
   19.7815    124.13    125.69    -29.78     20.00
   19.7916    123.79    125.62    -30.05     20.00
   19.8018    123.10    125.56    -30.68     20.00
   19.8120    122.45    125.50    -31.27     20.00
   19.8221    124.66    125.45    -29.02     20.00
   19.8323    124.04    125.41    -29.59     20.00
   19.8425    123.92    125.38    -29.68     20.00
   19.8526    122.24    125.35    -31.33     20.00
   19.8628    123.01    125.33    -30.54     20.00
   19.8730    124.43    125.31    -29.10     20.00
   19.8831    122.74    125.30    -30.78     20.00
   19.8933    123.96    125.30    -29.56     20.00
   19.9035    124.95    125.31    -28.58     20.00
   19.9136    123.81    125.33    -29.74     20.00
   19.9238    125.77    125.35    -27.80     20.00
   19.9339    122.51    125.38    -31.09     20.00
   19.9441    123.89    125.42    -29.76     20.00
   19.9543    124.81    125.48    -28.89     20.00
   19.9644    124.94    125.54    -28.82     20.00
   19.9746    124.29    125.61    -29.54     20.00
   19.9848    125.91    125.69    -28.00     20.00
   19.9949    126.75    125.78    -27.25     20.00
   20.0051    125.18    125.88    -28.92     20.00
   20.0153    125.58    126.00    -28.64     20.00
   20.0254    127.77    126.12    -26.58     20.00
   20.0356    126.32    126.26    -28.17     20.00
   20.0458    126.54    126.42    -28.10     20.00
   20.0559    127.04    126.58    -27.76     20.00
   20.0661    126.91    126.76    -28.07     20.00
   20.0763    128.50    126.95    -26.67     20.00
   20.0864    127.80    127.16    -27.58     20.00
   20.0966    127.50    127.38    -28.10     20.00
   20.1067    129.29    127.62    -26.55     20.00
   20.1169    128.94    127.87    -27.15     20.00
   20.1271    129.17    128.14    -27.19     20.00
   20.1372    129.48    128.42    -27.16     20.00
   20.1474    130.38    128.72    -26.56     20.00
   20.1576    130.72    129.04    -26.54     20.00
   20.1677    130.59    129.37    -27.00     20.00
   20.1779    132.72    129.72    -25.22     20.00
   20.1881    129.63    130.09    -28.68     20.00
   20.1982    132.54    130.47    -26.15     20.00
   20.2084    132.07    130.87    -27.02     20.00
   20.2186    133.83    131.29    -25.68     20.00
   20.2287    133.85    131.72    -26.09     20.00
   20.2389    134.19    132.17    -26.20     20.00
   20.2490    133.84    132.63    -27.01     20.00
   20.2592    138.24    133.11    -23.09     20.00
   20.2694    136.61    133.61    -25.22     20.00
   20.2795    134.71    134.11    -27.62     20.00
   20.2897    136.03    134.63    -26.83     20.00
   20.2999    135.09    135.17    -28.30     20.00
   20.3100    137.05    135.71    -26.89     20.00
   20.3202    136.20    136.27    -28.30     20.00
   20.3304    139.86    136.84    -25.21     20.00
   20.3405    138.41    137.42    -27.23     20.00
   20.3507    138.82    138.00    -27.40     20.00
   20.3609    139.71    138.59    -27.10     20.00
   20.3710    138.54    139.18    -28.86     20.00
   20.3812    140.62    139.77    -27.38     20.00
   20.3914    139.80    140.37    -28.79     20.00
   20.4015    140.80    140.96    -28.38     20.00
   20.4117    141.60    141.54    -28.16     20.00
   20.4218    143.42    142.12    -26.92     20.00
   20.4320    143.55    142.69    -27.36     20.00
   20.4422    142.66    143.24    -28.80     20.00
   20.4523    142.68    143.77    -29.32     20.00
   20.4625    143.33    144.29    -29.18     20.00
   20.4727    145.75    144.79    -27.26     20.00
   20.4828    143.25    145.25    -30.22     20.00
   20.4930    143.80    145.69    -30.11     20.00
   20.5032    145.04    146.09    -29.27     20.00
   20.5133    145.00    146.45    -29.67     20.00
   20.5235    144.68    146.78    -30.32     20.00
   20.5337    147.15    147.06    -28.13     20.00
   20.5438    146.25    147.29    -29.26     20.00
   20.5540    145.54    147.47    -30.15     20.00
   20.5641    147.30    147.60    -28.52     20.00
   20.5743    147.84    147.67    -28.05     20.00
   20.5845    144.85    147.69    -31.06     20.00
   20.5946    147.12    147.66    -28.76     20.00
   20.6048    146.50    147.56    -29.28     20.00
   20.6150    145.38    147.41    -30.25     20.00
   20.6251    147.12    147.21    -28.31     20.00
   20.6353    145.14    146.94    -30.03     20.00
   20.6455    144.73    146.63    -30.12     20.00
   20.6556    143.44    146.27    -31.05     20.00
   20.6658    145.73    145.85    -28.34     20.00
   20.6760    144.09    145.39    -29.52     20.00
   20.6861    144.78    144.89    -28.34     20.00
   20.6963    142.38    144.35    -30.19     20.00
   20.7065    143.41    143.77    -28.59     20.00
   20.7166    143.42    143.17    -27.97     20.00
   20.7268    143.41    142.53    -27.34     20.00
   20.7369    141.23    141.88    -28.87     20.00
   20.7471    141.75    141.19    -27.66     20.00
   20.7573    140.43    140.49    -28.28     20.00
   20.7674    139.19    139.78    -28.81     20.00
   20.7776    141.88    139.05    -25.39     20.00
   20.7878    142.09    138.31    -24.44     20.00
   20.7979    140.60    137.57    -25.20     20.00
   20.8081    139.95    136.83    -25.10     20.00
   20.8183    137.34    136.08    -26.96     20.00
   20.8284    137.03    135.34    -26.53     20.00
   20.8386    138.09    134.59    -24.72     20.00
   20.8488    135.20    133.85    -26.87     20.00
   20.8589    131.76    133.13    -29.59     20.00
   20.8691    134.36    132.40    -26.26     20.00
   20.8792    135.19    131.69    -24.73     20.00
   20.8894    131.15    130.99    -28.06     20.00
   20.8996    132.52    130.30    -26.00     20.00
   20.9097    133.12    129.62    -24.72     20.00
   20.9199    131.42    128.96    -25.76     20.00
   20.9301    129.85    128.30    -26.68     20.00
   20.9402    129.54    127.67    -26.36     20.00
   20.9504    127.32    127.05    -27.95     20.00
   20.9606    128.92    126.45    -25.75     20.00
   20.9707    128.43    125.86    -25.66     20.00
   20.9809    126.91    125.29    -26.60     20.00
   20.9911    126.29    124.74    -26.67     20.00
   21.0012    126.30    124.20    -26.13     20.00
   21.0114    126.02    123.68    -25.89     20.00
   21.0216    122.81    123.18    -28.59     20.00
   21.0317    124.94    122.70    -25.98     20.00
   21.0419    121.51    122.23    -28.94     20.00
   21.0520    122.02    121.78    -27.99     20.00
   21.0622    122.94    121.35    -26.63     20.00
   21.0724    121.19    120.93    -27.97     20.00
   21.0825    121.65    120.54    -27.11     20.00
   21.0927    120.32    120.15    -28.05     20.00
   21.1029    118.76    119.79    -29.25     20.00
   21.1130    119.59    119.44    -28.07     20.00
   21.1232    119.29    119.10    -28.03     20.00
   21.1334    118.86    118.78    -28.14     20.00
   21.1435    117.24    118.48    -29.46     20.00
   21.1537    117.10    118.19    -29.31     20.00
   21.1639    116.04    117.91    -30.09     20.00
   21.1740    116.41    117.65    -29.46     20.00
   21.1842    116.34    117.40    -29.28     20.00
   21.1943    113.48    117.17    -31.91     20.00
   21.2045    115.24    116.94    -29.92     20.00
   21.2147    114.20    116.73    -30.75     20.00
   21.2248    113.36    116.54    -31.40     20.00
   21.2350    113.85    116.35    -30.72     20.00
   21.2452    113.46    116.17    -30.94     20.00
   21.2553    112.83    116.01    -31.41     20.00
   21.2655    113.29    115.86    -30.79     20.00
   21.2757    113.52    115.72    -30.42     20.00
   21.2858    112.94    115.59    -30.87     20.00
   21.2960    113.37    115.47    -30.32     20.00
   21.3062    112.55    115.36    -31.03     20.00
   21.3163    110.54    115.26    -32.95     20.00
   21.3265    112.22    115.17    -31.18     20.00
   21.3366    112.12    115.10    -31.20     20.00
   21.3468    110.85    115.02    -32.40     20.00
   21.3570    112.18    114.96    -31.01     20.00
   21.3671    111.75    114.91    -31.39     20.00
   21.3773    111.04    114.87    -32.05     20.00
   21.3875    110.82    114.84    -32.24     20.00
   21.3976    111.99    114.82    -31.05     20.00
   21.4078    111.27    114.80    -31.75     20.00
   21.4180    110.56    114.80    -32.46     20.00
   21.4281    110.93    114.80    -32.10     20.00
   21.4383    110.38    114.82    -32.66     20.00
   21.4485    111.43    114.84    -31.63     20.00
   21.4586    111.69    114.88    -31.41     20.00
   21.4688    110.30    114.92    -32.84     20.00
   21.4790    111.06    114.97    -32.13     20.00
   21.4891    110.78    115.03    -32.48     20.00
   21.4993    111.59    115.11    -31.74     20.00
   21.5094    111.85    115.19    -31.56     20.00
   21.5196    111.46    115.28    -32.05     20.00
   21.5298    110.23    115.39    -33.38     20.00
   21.5399    111.90    115.50    -31.83     20.00
   21.5501    111.23    115.63    -32.62     20.00
   21.5603    109.86    115.77    -34.13     20.00
   21.5704    111.73    115.92    -32.41     20.00
   21.5806    111.45    116.08    -32.85     20.00
   21.5908    113.57    116.25    -30.90     20.00
   21.6009    111.71    116.43    -32.94     20.00
   21.6111    111.30    116.63    -33.55     20.00
   21.6213    110.90    116.84    -34.16     20.00
   21.6314    113.15    117.06    -32.13     20.00
   21.6416    112.75    117.30    -32.77     20.00
   21.6517    112.21    117.54    -33.56     20.00
   21.6619    113.57    117.81    -32.46     20.00
   21.6721    114.41    118.08    -31.90     20.00
   21.6822    112.80    118.37    -33.80     20.00
   21.6924    115.57    118.68    -31.33     20.00
   21.7026    115.36    119.00    -31.86     20.00
   21.7127    115.96    119.33    -31.59     20.00
   21.7229    116.47    119.68    -31.43     20.00
   21.7331    117.31    120.05    -30.96     20.00
   21.7432    118.42    120.42    -30.23     20.00
   21.7534    118.38    120.82    -30.66     20.00
   21.7636    120.40    121.23    -29.06     20.00
   21.7737    117.84    121.66    -32.04     20.00
   21.7839    119.30    122.11    -31.03     20.00
   21.7941    121.61    122.57    -29.18     20.00
   21.8042    121.24    123.04    -30.02     20.00
   21.8144    121.17    123.54    -30.59     20.00
   21.8245    124.12    124.04    -28.15     20.00
   21.8347    123.93    124.57    -28.87     20.00
   21.8449    125.36    125.12    -27.98     20.00
   21.8550    127.29    125.68    -26.61     20.00
   21.8652    125.48    126.26    -29.00     20.00
   21.8754    127.44    126.86    -27.64     20.00
   21.8855    127.61    127.47    -28.08     20.00
   21.8957    127.20    128.10    -29.12     20.00
   21.9059    130.04    128.75    -26.93     20.00
   21.9160    129.68    129.41    -27.95     20.00
   21.9262    129.62    130.10    -28.70     20.00
   21.9364    132.59    130.80    -26.43     20.00
   21.9465    132.82    131.51    -26.91     20.00
   21.9567    134.18    132.24    -26.28     20.00
   21.9668    133.34    132.99    -27.87     20.00
   21.9770    134.38    133.75    -27.59     20.00
   21.9872    133.90    134.53    -28.86     20.00
   21.9973    138.08    135.33    -25.47     20.00
   22.0075    138.51    136.14    -25.85     20.00
   22.0177    137.91    136.97    -27.28     20.00
   22.0278    138.70    137.80    -27.32     20.00
   22.0380    141.47    138.66    -25.41     20.00
   22.0482    140.04    139.53    -27.71     20.00
   22.0583    143.45    140.40    -25.17     20.00
   22.0685    142.27    141.30    -27.25     20.00
   22.0787    143.08    142.20    -27.34     20.00
   22.0888    146.47    143.11    -24.86     20.00
   22.0990    147.91    144.04    -24.35     20.00
   22.1092    146.40    144.97    -26.80     20.00
   22.1193    147.10    145.91    -27.03     20.00
   22.1295    151.96    146.86    -23.12     20.00
   22.1396    150.38    147.81    -25.65     20.00
   22.1498    151.18    148.77    -25.81     20.00
   22.1600    151.98    149.74    -25.98     20.00
   22.1701    152.61    150.70    -26.31     20.00
   22.1803    154.63    151.67    -25.26     20.00
   22.1905    155.58    152.64    -25.29     20.00
   22.2006    154.99    153.61    -26.84     20.00
   22.2108    158.26    154.57    -24.54     20.00
   22.2210    159.65    155.54    -24.11     20.00
   22.2311    159.18    156.49    -25.53     20.00
   22.2413    161.51    157.44    -24.15     20.00
   22.2515    163.16    158.38    -23.44     20.00
   22.2616    161.81    159.30    -25.71     20.00
   22.2718    162.64    160.21    -25.79     20.00
   22.2819    166.21    161.10    -23.12     20.00
   22.2921    164.87    161.99    -25.34     20.00
   22.3023    166.30    162.85    -24.77     20.00
   22.3124    166.76    163.68    -25.14     20.00
   22.3226    166.65    164.50    -26.07     20.00
   22.3328    168.03    165.29    -25.48     20.00
   22.3429    168.20    166.04    -26.07     20.00
   22.3531    168.86    166.78    -26.14     20.00
   22.3633    169.62    167.47    -26.08     20.00
   22.3734    169.86    168.13    -26.49     20.00
   22.3836    168.88    168.75    -28.09     20.00
   22.3938    172.11    169.34    -25.45     20.00
   22.4039    174.02    169.87    -24.07     20.00
   22.4141    169.93    170.37    -28.66     20.00
   22.4243    171.64    170.82    -27.40     20.00
   22.4344    172.23    171.21    -27.20     20.00
   22.4446    169.90    171.56    -29.88     20.00
   22.4547    173.61    171.86    -26.47     20.00
   22.4649    172.62    172.10    -27.70     20.00
   22.4751    172.00    172.29    -28.51     20.00
   22.4852    174.01    172.42    -26.63     20.00
   22.4954    171.18    172.49    -29.53     20.00
   22.5056    171.21    172.51    -29.52     20.00
   22.5157    173.01    172.46    -27.67     20.00
   22.5259    171.07    172.36    -29.51     20.00
   22.5361    168.89    172.19    -31.53     20.00
   22.5462    168.43    171.97    -31.77     20.00
   22.5564    169.33    171.69    -30.58     20.00
   22.5666    166.63    171.35    -32.94     20.00
   22.5767    170.66    170.95    -28.51     20.00
   22.5869    168.96    170.50    -29.76     20.00
   22.5970    165.23    169.99    -32.98     20.00
   22.6072    167.45    169.42    -30.19     20.00
   22.6174    167.59    168.80    -29.43     20.00
   22.6275    165.38    168.13    -30.97     20.00
   22.6377    164.11    167.41    -31.52     20.00
   22.6479    163.63    166.64    -31.23     20.00
   22.6580    161.20    165.83    -32.85     20.00
   22.6682    161.73    164.96    -31.46     20.00
   22.6784    161.50    164.06    -30.78     20.00
   22.6885    157.89    163.13    -33.46     20.00
   22.6987    158.62    162.15    -31.75     20.00
   22.7089    158.82    161.13    -30.53     20.00
   22.7190    156.11    160.09    -32.21     20.00
   22.7292    157.68    159.01    -29.56     20.00
   22.7394    156.70    157.91    -29.43     20.00
   22.7495    153.60    156.79    -31.41     20.00
   22.7597    152.95    155.63    -30.91     20.00
   22.7698    153.91    154.47    -28.78     20.00
   22.7800    149.80    153.27    -31.70     20.00
   22.7902    149.95    152.06    -30.33     20.00
   22.8003    148.97    150.85    -30.10     20.00
   22.8105    145.29    149.61    -32.54     20.00
   22.8207    145.97    148.36    -30.61     20.00
   22.8308    145.57    147.11    -29.77     20.00
   22.8410    143.01    145.85    -31.06     20.00
   22.8512    143.55    144.58    -29.25     20.00
   22.8613    142.37    143.32    -29.17     20.00
   22.8715    141.19    142.04    -29.07     20.00
   22.8817    139.43    140.76    -29.55     20.00
   22.8918    137.59    139.50    -30.13     20.00
   22.9020    138.73    138.22    -27.72     20.00
   22.9121    137.73    136.96    -27.46     20.00
   22.9223    135.78    135.70    -28.14     20.00
   22.9325    133.97    134.44    -28.69     20.00
   22.9426    134.29    133.19    -27.13     20.00
   22.9528    131.35    131.95    -28.82     20.00
   22.9630    130.12    130.71    -28.81     20.00
   22.9731    130.80    129.49    -26.92     20.00
   22.9833    128.60    128.28    -27.90     20.00
   22.9935    127.94    127.07    -27.35     20.00
   23.0036    127.10    125.89    -27.01     20.00
   23.0138    126.48    124.70    -26.44     20.00
   23.0240    125.29    123.53    -26.46     20.00
   23.0341    124.60    122.39    -26.01     20.00
   23.0443    122.50    121.25    -26.97     20.00
   23.0545    119.92    120.12    -28.42     20.00
   23.0646    120.12    119.02    -27.12     20.00
   23.0748    119.63    117.92    -26.51     20.00
   23.0849    118.65    116.85    -26.42     20.00
   23.0951    117.46    115.78    -26.54     20.00
   23.1053    117.22    114.73    -25.73     20.00
   23.1154    114.46    113.71    -27.47     20.00
   23.1256    114.59    112.69    -26.33     20.00
   23.1358    114.62    111.69    -25.30     20.00
   23.1459    114.48    110.72    -24.46     20.00
   23.1561    112.09    109.76    -25.89     20.00
   23.1663    109.69    108.81    -27.34     20.00
   23.1764    109.95    107.89    -26.16     20.00
   23.1866    110.48    106.97    -24.71     20.00
   23.1968    109.51    106.08    -24.79     20.00
   23.2069    108.01    105.21    -25.42     20.00
   23.2171    106.46    104.34    -26.11     20.00
   23.2272    106.02    103.51    -25.71     20.00
   23.2374    107.21    102.68    -23.69     20.00
   23.2476    104.47    101.87    -25.62     20.00
   23.2577    103.54    101.08    -25.76     20.00
   23.2679    103.45    100.30    -25.08     20.00
   23.2781    103.02     99.54    -24.75     20.00
   23.2882    100.80     98.81    -26.23     20.00
   23.2984    101.39     98.08    -24.91     20.00
   23.3086    100.63     97.37    -24.96     20.00
   23.3187    100.14     96.68    -24.76     20.00
   23.3289     98.19     96.00    -26.03     20.00
   23.3391     98.35     95.33    -25.20     20.00
   23.3492     98.02     94.69    -24.89     20.00
   23.3594     95.74     94.05    -26.53     20.00
   23.3695     96.15     93.44    -25.51     20.00
   23.3797     96.04     92.83    -25.01     20.00
   23.3899     96.07     92.24    -24.39     20.00
   23.4000     94.51     91.66    -25.38     20.00
   23.4102     94.71     91.10    -24.61     20.00
   23.4204     94.57     90.55    -24.20     20.00
   23.4305     91.66     90.01    -26.57     20.00
   23.4407     92.02     89.49    -25.69     20.00
   23.4509     90.82     88.97    -26.37     20.00
   23.4610     91.66     88.47    -25.04     20.00
   23.4712     90.41     87.98    -25.80     20.00
   23.4814     89.24     87.51    -26.49     20.00
   23.4915     89.85     87.04    -25.41     20.00
   23.5017     87.21     86.59    -27.60     20.00
   23.5119     88.02     86.14    -26.34     20.00
   23.5220     86.69     85.71    -27.24     20.00
   23.5322     87.45     85.28    -26.05     20.00
   23.5423     86.37     84.87    -26.72     20.00
   23.5525     85.87     84.46    -26.81     20.00
   23.5627     85.26     84.06    -27.03     20.00
   23.5728     84.42     83.68    -27.48     20.00
   23.5830     84.45     83.30    -27.07     20.00
   23.5932     82.83     82.93    -28.32     20.00
   23.6033     83.04     82.57    -27.75     20.00
   23.6135     82.87     82.21    -27.56     20.00
   23.6237     81.82     81.86    -28.26     20.00
   23.6338     80.05     81.52    -29.70     20.00
   23.6440     81.93     81.19    -27.48     20.00
   23.6542     82.15     80.86    -26.94     20.00
   23.6643     80.84     80.55    -27.93     20.00
   23.6745     81.24     80.23    -27.21     20.00
   23.6846     79.62     79.93    -28.53     20.00
   23.6948     79.29     79.62    -28.56     20.00
   23.7050     79.98     79.33    -27.57     20.00
   23.7151     79.26     79.04    -28.00     20.00
   23.7253     76.90     78.75    -30.08     20.00
   23.7355     77.18     78.47    -29.52     20.00
   23.7456     78.12     78.20    -28.30     20.00
   23.7558     78.26     77.93    -27.89     20.00
   23.7660     76.94     77.66    -28.95     20.00
   23.7761     76.34     77.40    -29.29     20.00
   23.7863     75.54     77.15    -29.83     20.00
   23.7965     76.21     76.89    -28.90     20.00
   23.8066     75.79     76.65    -29.08     20.00
   23.8168     75.74     76.40    -28.88     20.00
   23.8270     74.91     76.16    -29.47     20.00
   23.8371     75.88     75.92    -28.26     20.00
   23.8473     73.95     75.69    -29.96     20.00
   23.8574     74.58     75.46    -29.10     20.00
   23.8676     74.21     75.23    -29.24     20.00
   23.8778     73.52     75.00    -29.70     20.00
   23.8879     71.74     74.78    -31.26     20.00
   23.8981     71.44     74.56    -31.34     20.00
   23.9083     72.74     74.34    -29.83     20.00
   23.9184     71.40     74.13    -30.95     20.00
   23.9286     70.98     73.92    -31.16     20.00
   23.9388     70.80     73.71    -31.13     20.00
   23.9489     72.24     73.50    -29.48     20.00
   23.9591     70.94     73.30    -30.58     20.00
   23.9693     69.98     73.09    -31.34     20.00
   23.9794     69.79     72.90    -31.33     20.00
   23.9896     70.20     72.70    -30.72     20.00
   23.9997     69.15     72.50    -31.57     20.00
   24.0099     69.99     72.31    -30.54     20.00
   24.0201     70.80     72.11    -29.53     20.00
   24.0302     69.43     71.92    -30.71     20.00
   24.0404     69.14     71.73    -30.81     20.00
   24.0506     68.20     71.54    -31.57     20.00
   24.0607     68.05     71.36    -31.53     20.00
   24.0709     68.60     71.17    -30.80     20.00
   24.0811     66.15     70.99    -33.06     20.00
   24.0912     67.62     70.81    -31.41     20.00
   24.1014     66.76     70.63    -32.09     20.00
   24.1116     66.20     70.45    -32.47     20.00
   24.1217     66.90     70.27    -31.60     20.00
   24.1319     67.45     70.10    -30.87     20.00
   24.1421     65.83     69.92    -32.31     20.00
   24.1522     65.87     69.75    -32.10     20.00
   24.1624     67.14     69.58    -30.66     20.00
   24.1725     66.78     69.41    -30.85     20.00
   24.1827     66.11     69.24    -31.35     20.00
   24.1929     65.52     69.07    -31.77     20.00
   24.2030     67.15     68.90    -29.97     20.00
   24.2132     63.96     68.73    -32.99     20.00
   24.2234     65.73     68.57    -31.06     20.00
   24.2335     64.98     68.40    -31.64     20.00
   24.2437     64.45     68.24    -32.01     20.00
   24.2539     64.39     68.07    -31.91     20.00
   24.2640     64.11     67.91    -32.03     20.00
   24.2742     65.15     67.75    -30.82     20.00
   24.2844     63.95     67.59    -31.86     20.00
   24.2945     64.26     67.43    -31.39     20.00
   24.3047     64.81     67.27    -30.69     20.00
   24.3148     63.60     67.12    -31.74     20.00
   24.3250     64.03     66.96    -31.15     20.00
   24.3352     64.35     66.80    -30.68     20.00
   24.3453     62.93     66.65    -31.94     20.00
   24.3555     62.45     66.50    -32.27     20.00
   24.3657     62.78     66.34    -31.78     20.00
   24.3758     63.60     66.19    -30.81     20.00
   24.3860     62.27     66.04    -31.99     20.00
   24.3962     63.53     65.89    -30.58     20.00
   24.4063     62.16     65.74    -31.80     20.00
   24.4165     60.45     65.59    -33.36     20.00
   24.4267     62.21     65.44    -31.45     20.00
   24.4368     61.48     65.29    -32.03     20.00
   24.4470     61.30     65.14    -32.07     20.00
   24.4572     60.95     65.00    -32.27     20.00
   24.4673     62.72     64.85    -30.35     20.00
   24.4775     61.43     64.71    -31.50     20.00
   24.4876     61.66     64.56    -31.12     20.00
   24.4978     61.46     64.42    -31.18     20.00
   24.5080     60.52     64.27    -31.98     20.00
   24.5181     61.95     64.13    -30.40     20.00
   24.5283     60.62     63.99    -31.59     20.00
   24.5385     61.73     63.85    -30.34     20.00
   24.5486     61.73     63.71    -30.20     20.00
   24.5588     59.21     63.57    -32.58     20.00
   24.5690     60.84     63.43    -30.81     20.00
   24.5791     59.59     63.29    -31.92     20.00
   24.5893     61.01     63.15    -30.36     20.00
   24.5995     59.36     63.01    -31.88     20.00
   24.6096     59.05     62.88    -32.05     20.00
   24.6198     59.65     62.74    -31.31     20.00
   24.6299     59.40     62.61    -31.43     20.00
   24.6401     59.65     62.47    -31.04     20.00
   24.6503     59.99     62.33    -30.57     20.00
   24.6604     59.59     62.20    -30.83     20.00
   24.6706     60.93     62.07    -29.36     20.00
   24.6808     58.23     61.93    -31.93     20.00
   24.6909     60.37     61.80    -29.65     20.00
   24.7011     59.36     61.67    -30.53     20.00
   24.7113     59.11     61.54    -30.65     20.00
   24.7214     58.64     61.41    -30.99     20.00
   24.7316     59.06     61.28    -30.44     20.00
   24.7418     58.45     61.15    -30.92     20.00
   24.7519     58.86     61.02    -30.38     20.00
   24.7621     58.68     60.89    -30.43     20.00
   24.7723     58.21     60.76    -30.77     20.00
   24.7824     59.16     60.64    -29.70     20.00
   24.7926     58.52     60.51    -30.21     20.00
   24.8027     57.77     60.38    -30.83     20.00
   24.8129     57.48     60.26    -31.00     20.00
   24.8231     57.75     60.13    -30.60     20.00
   24.8332     58.04     60.01    -30.19     20.00
   24.8434     58.15     59.88    -29.95     20.00
   24.8536     58.15     59.76    -29.83     20.00
   24.8637     57.79     59.63    -30.07     20.00
   24.8739     56.12     59.51    -31.61     20.00
   24.8841     56.86     59.39    -30.75     20.00
   24.8942     56.88     59.27    -30.61     20.00
   24.9044     57.25     59.14    -30.12     20.00
   24.9146     57.19     59.02    -30.05     20.00
   24.9247     57.65     58.90    -29.47     20.00
   24.9349     56.49     58.78    -30.51     20.00
   24.9450     56.56     58.66    -30.33     20.00
   24.9552     55.91     58.54    -30.86     20.00
   24.9654     56.34     58.43    -30.31     20.00
   24.9755     57.36     58.31    -29.17     20.00
   24.9857     56.88     58.19    -29.53     20.00
   24.9959     56.47     58.07    -29.82     20.00
   25.0060     56.43     57.96    -29.75     20.00
   25.0162     56.20     57.84    -29.86     20.00
   25.0264     56.20     57.72    -29.74     20.00
   25.0365     56.65     57.61    -29.18     20.00
   25.0467     56.07     57.49    -29.64     20.00
   25.0569     55.95     57.38    -29.65     20.00
   25.0670     56.31     57.26    -29.18     20.00
   25.0772     56.28     57.15    -29.09     20.00
   25.0874     55.72     57.04    -29.54     20.00
   25.0975     55.04     56.93    -30.11     20.00
   25.1077     56.15     56.81    -28.88     20.00
   25.1178     56.48     56.70    -28.44     20.00
   25.1280     55.87     56.59    -28.94     20.00
   25.1382     56.20     56.48    -28.50     20.00
   25.1483     55.07     56.37    -29.52     20.00
   25.1585     55.58     56.26    -28.90     20.00
   25.1687     55.45     56.15    -28.92     20.00
   25.1788     56.90     56.04    -27.36     20.00
   25.1890     55.83     55.93    -28.32     20.00
   25.1992     54.79     55.82    -29.25     20.00
   25.2093     56.26     55.71    -27.68     20.00
   25.2195     55.31     55.61    -28.52     20.00
   25.2297     55.84     55.50    -27.88     20.00
   25.2398     55.93     55.39    -27.69     20.00
   25.2500     55.07     55.29    -28.44     20.00
   25.2601     54.36     55.18    -29.04     20.00
   25.2703     54.91     55.08    -28.39     20.00
   25.2805     56.74     54.97    -26.45     20.00
   25.2906     56.01     54.87    -27.08     20.00
   25.3008     54.94     54.76    -28.04     20.00
   25.3110     55.10     54.66    -27.78     20.00
   25.3211     54.20     54.56    -28.58     20.00
   25.3313     54.91     54.45    -27.76     20.00
   25.3415     54.59     54.35    -27.98     20.00
   25.3516     54.63     54.25    -27.84     20.00
   25.3618     54.40     54.15    -27.97     20.00
   25.3720     55.01     54.05    -27.26     20.00
   25.3821     55.40     53.95    -26.77     20.00
   25.3923     54.77     53.84    -27.30     20.00
   25.4024     54.80     53.75    -27.17     20.00
   25.4126     53.76     53.65    -28.11     20.00
   25.4228     54.84     53.55    -26.93     20.00
   25.4329     54.29     53.45    -27.38     20.00
   25.4431     54.25     53.35    -27.32     20.00
   25.4533     54.85     53.25    -26.62     20.00
   25.4634     53.47     53.15    -27.91     20.00
   25.4736     54.55     53.06    -26.73     20.00
   25.4838     53.92     52.96    -27.26     20.00
   25.4939     53.07     52.86    -28.02     20.00
   25.5041     54.52     52.77    -26.47     20.00
   25.5143     54.34     52.67    -26.55     20.00
   25.5244     53.38     52.58    -27.42     20.00
   25.5346     53.68     52.48    -27.02     20.00
   25.5448     54.66     52.39    -25.95     20.00
   25.5549     53.21     52.30    -27.31     20.00
   25.5651     54.30     52.20    -26.12     20.00
   25.5752     53.76     52.11    -26.57     20.00
   25.5854     53.77     52.02    -26.47     20.00
   25.5956     54.49     51.92    -25.66     20.00
   25.6057     54.00     51.83    -26.05     20.00
   25.6159     53.94     51.74    -26.02     20.00
   25.6261     52.89     51.65    -26.98     20.00
   25.6362     53.61     51.56    -26.17     20.00
   25.6464     53.09     51.47    -26.60     20.00
   25.6566     54.09     51.38    -25.51     20.00
   25.6667     53.83     51.29    -25.68     20.00
   25.6769     53.89     51.20    -25.53     20.00
   25.6871     53.77     51.11    -25.56     20.00
   25.6972     53.50     51.02    -25.75     20.00
   25.7074     53.81     50.94    -25.35     20.00
   25.7175     53.00     50.85    -26.07     20.00
   25.7277     53.88     50.76    -25.10     20.00
   25.7379     52.58     50.67    -26.32     20.00
   25.7480     53.55     50.59    -25.26     20.00
   25.7582     53.94     50.50    -24.79     20.00
   25.7684     52.43     50.42    -26.21     20.00
   25.7785     51.65     50.33    -26.91     20.00
   25.7887     53.70     50.25    -24.77     20.00
   25.7989     53.49     50.16    -24.90     20.00
   25.8090     51.84     50.08    -26.46     20.00
   25.8192     53.31     50.00    -24.91     20.00
   25.8294     51.48     49.91    -26.66     20.00
   25.8395     52.49     49.83    -25.56     20.00
   25.8497     52.61     49.75    -25.36     20.00
   25.8599     51.21     49.67    -26.68     20.00
   25.8700     51.65     49.59    -26.16     20.00
   25.8802     52.62     49.51    -25.11     20.00
   25.8903     51.26     49.43    -26.39     20.00
   25.9005     52.00     49.34    -25.57     20.00
   25.9107     51.96     49.26    -25.53     20.00
   25.9208     52.49     49.19    -24.92     20.00
   25.9310     52.54     49.11    -24.79     20.00
   25.9412     51.37     49.03    -25.88     20.00
   25.9513     50.91     48.95    -26.26     20.00
   25.9615     52.03     48.87    -25.06     20.00
   25.9717     51.80     48.80    -25.22     20.00
   25.9818     51.41     48.72    -25.53     20.00
   25.9920     52.24     48.64    -24.62     20.00
   26.0022     51.87     48.57    -24.92     20.00
   26.0123     50.51     48.49    -26.20     20.00
   26.0225     52.17     48.42    -24.47     20.00
   26.0326     50.95     48.34    -25.61     20.00
   26.0428     52.68     48.27    -23.81     20.00
   26.0530     51.42     48.19    -24.99     20.00
   26.0631     50.27     48.12    -26.07     20.00
   26.0733     51.01     48.05    -25.26     20.00
   26.0835     50.60     47.97    -25.60     20.00
   26.0936     51.49     47.90    -24.63     20.00
   26.1038     50.93     47.83    -25.12     20.00
   26.1140     50.68     47.76    -25.30     20.00
   26.1241     49.74     47.69    -26.17     20.00
   26.1343     49.97     47.62    -25.87     20.00
   26.1445     50.47     47.55    -25.30     20.00
   26.1546     50.85     47.48    -24.85     20.00
   26.1648     50.15     47.41    -25.48     20.00
   26.1750     49.45     47.34    -26.11     20.00
   26.1851     50.62     47.27    -24.87     20.00
   26.1953     49.71     47.20    -25.72     20.00
   26.2054     50.05     47.14    -25.31     20.00
   26.2156     49.93     47.07    -25.36     20.00
   26.2258     49.68     47.00    -25.55     20.00
   26.2359     49.92     46.94    -25.24     20.00
   26.2461     51.69     46.87    -23.41     20.00
   26.2563     50.66     46.81    -24.37     20.00
   26.2664     49.68     46.74    -25.29     20.00
   26.2766     50.07     46.68    -24.83     20.00
   26.2868     48.71     46.62    -26.13     20.00
   26.2969     49.61     46.55    -25.17     20.00
   26.3071     49.55     46.49    -25.16     20.00
   26.3173     50.47     46.43    -24.18     20.00
   26.3274     49.99     46.37    -24.60     20.00
   26.3376     50.49     46.31    -24.04     20.00
   26.3477     49.80     46.25    -24.67     20.00
   26.3579     50.13     46.19    -24.28     20.00
   26.3681     49.00     46.13    -25.35     20.00
   26.3782     48.93     46.07    -25.36     20.00
   26.3884     49.40     46.01    -24.83     20.00
   26.3986     49.02     45.95    -25.15     20.00
   26.4087     49.69     45.89    -24.43     20.00
   26.4189     48.56     45.84    -25.50     20.00
   26.4291     49.09     45.78    -24.91     20.00
   26.4392     48.27     45.73    -25.68     20.00
   26.4494     48.56     45.67    -25.33     20.00
   26.4596     49.37     45.62    -24.47     20.00
   26.4697     48.74     45.56    -25.04     20.00
   26.4799     48.57     45.51    -25.16     20.00
   26.4901     49.13     45.46    -24.55     20.00
   26.5002     48.19     45.40    -25.44     20.00
   26.5104     48.59     45.35    -24.99     20.00
   26.5205     49.09     45.30    -24.43     20.00
   26.5307     48.54     45.25    -24.93     20.00
   26.5409     48.34     45.20    -25.08     20.00
   26.5510     48.18     45.15    -25.20     20.00
   26.5612     48.32     45.11    -25.01     20.00
   26.5714     47.99     45.06    -25.29     20.00
   26.5815     49.43     45.01    -23.80     20.00
   26.5917     48.20     44.97    -24.99     20.00
   26.6019     47.58     44.92    -25.56     20.00
   26.6120     47.62     44.88    -25.48     20.00
   26.6222     48.76     44.83    -24.29     20.00
   26.6324     48.13     44.79    -24.88     20.00
   26.6425     47.66     44.75    -25.31     20.00
   26.6527     48.79     44.71    -24.14     20.00
   26.6628     48.98     44.66    -23.91     20.00
   26.6730     48.07     44.62    -24.78     20.00
   26.6832     48.55     44.59    -24.26     20.00
   26.6933     47.77     44.55    -25.00     20.00
   26.7035     47.71     44.51    -25.02     20.00
   26.7137     47.04     44.47    -25.66     20.00
   26.7238     47.13     44.44    -25.53     20.00
   26.7340     47.29     44.40    -25.34     20.00
   26.7442     47.34     44.37    -25.25     20.00
   26.7543     48.57     44.34    -23.99     20.00
   26.7645     47.95     44.31    -24.58     20.00
   26.7747     47.55     44.28    -24.95     20.00
   26.7848     47.64     44.25    -24.83     20.00
   26.7950     48.67     44.22    -23.77     20.00
   26.8052     46.84     44.19    -25.57     20.00
   26.8153     47.01     44.17    -25.38     20.00
   26.8255     47.93     44.14    -24.43     20.00
   26.8356     47.17     44.12    -25.17     20.00
   26.8458     47.62     44.09    -24.70     20.00
   26.8560     48.26     44.07    -24.03     20.00
   26.8661     47.60     44.05    -24.67     20.00
   26.8763     46.52     44.03    -25.74     20.00
   26.8865     47.90     44.02    -24.34     20.00
   26.8966     47.63     44.00    -24.59     20.00
   26.9068     47.99     43.98    -24.22     20.00
   26.9170     47.28     43.97    -24.91     20.00
   26.9271     46.50     43.96    -25.68     20.00
   26.9373     47.39     43.95    -24.78     20.00
   26.9475     47.55     43.94    -24.61     20.00
   26.9576     46.76     43.93    -25.39     20.00
   26.9678     47.16     43.93    -24.99     20.00
   26.9779     46.81     43.92    -25.33     20.00
   26.9881     46.71     43.92    -25.43     20.00
   26.9983     47.16     43.92    -24.98     20.00
   27.0084     47.84     43.92    -24.30     20.00
   27.0186     46.12     43.92    -26.03     20.00
   27.0288     47.60     43.93    -24.55     20.00
   27.0389     46.93     43.93    -25.23     20.00
   27.0491     46.57     43.94    -25.59     20.00
   27.0593     47.55     43.95    -24.62     20.00
   27.0694     45.88     43.97    -26.31     20.00
   27.0796     46.99     43.98    -25.21     20.00
   27.0898     46.54     44.00    -25.68     20.00
   27.0999     47.03     44.01    -25.21     20.00
   27.1101     47.26     44.04    -25.00     20.00
   27.1202     47.68     44.06    -24.60     20.00
   27.1304     47.68     44.08    -24.63     20.00
   27.1406     46.82     44.11    -25.51     20.00
   27.1507     46.85     44.14    -25.51     20.00
   27.1609     46.54     44.17    -25.86     20.00
   27.1711     46.74     44.21    -25.69     20.00
   27.1812     46.89     44.25    -25.58     20.00
   27.1914     47.23     44.29    -25.28     20.00
   27.2016     47.25     44.33    -25.30     20.00
   27.2117     46.39     44.37    -26.21     20.00
   27.2219     47.63     44.42    -25.01     20.00
   27.2321     46.49     44.47    -26.21     20.00
   27.2422     46.18     44.53    -26.57     20.00
   27.2524     46.37     44.58    -26.44     20.00
   27.2626     46.76     44.64    -26.11     20.00
   27.2727     47.52     44.71    -25.41     20.00
   27.2829     47.15     44.77    -25.84     20.00
   27.2930     47.07     44.84    -25.99     20.00
   27.3032     46.75     44.91    -26.38     20.00
   27.3134     47.84     44.99    -25.37     20.00
   27.3235     48.22     45.06    -25.07     20.00
   27.3337     46.52     45.15    -26.85     20.00
   27.3439     47.57     45.23    -25.88     20.00
   27.3540     47.87     45.32    -25.67     20.00
   27.3642     46.61     45.41    -27.02     20.00
   27.3744     46.66     45.51    -27.07     20.00
   27.3845     47.25     45.61    -26.58     20.00
   27.3947     46.29     45.71    -27.64     20.00
   27.4049     47.59     45.82    -26.45     20.00
   27.4150     47.36     45.93    -26.79     20.00
   27.4252     48.40     46.04    -25.86     20.00
   27.4353     47.31     46.16    -27.07     20.00
   27.4455     47.98     46.28    -26.52     20.00
   27.4557     47.49     46.40    -27.14     20.00
   27.4658     48.11     46.53    -26.65     20.00
   27.4760     47.09     46.67    -27.80     20.00
   27.4862     46.71     46.81    -28.32     20.00
   27.4963     47.51     46.95    -27.66     20.00
   27.5065     47.45     47.09    -27.86     20.00
   27.5167     47.37     47.24    -28.09     20.00
   27.5268     47.82     47.40    -27.80     20.00
   27.5370     48.04     47.55    -27.74     20.00
   27.5472     47.84     47.72    -28.10     20.00
   27.5573     48.66     47.88    -27.44     20.00
   27.5675     47.14     48.05    -29.14     20.00
   27.5777     48.82     48.23    -27.63     20.00
   27.5878     48.24     48.41    -28.39     20.00
   27.5980     48.11     48.59    -28.70     20.00
   27.6081     48.63     48.78    -28.37     20.00
   27.6183     47.79     48.97    -29.40     20.00
   27.6285     48.04     49.17    -29.35     20.00
   27.6386     48.54     49.37    -29.05     20.00
   27.6488     49.32     49.58    -28.48     20.00
   27.6590     49.98     49.79    -28.03     20.00
   27.6691     49.84     50.00    -28.38     20.00
   27.6793     49.34     50.22    -29.10     20.00
   27.6895     49.76     50.45    -28.91     20.00
   27.6996     50.12     50.67    -28.77     20.00
   27.7098     49.48     50.91    -29.65     20.00
   27.7200     50.37     51.14    -28.99     20.00
   27.7301     49.99     51.38    -29.61     20.00
   27.7403     50.93     51.63    -28.92     20.00
   27.7504     50.15     51.88    -29.95     20.00
   27.7606     50.04     52.13    -30.31     20.00
   27.7708     50.92     52.39    -29.69     20.00
   27.7809     51.23     52.65    -29.64     20.00
   27.7911     51.45     52.92    -29.69     20.00
   27.8013     51.12     53.19    -30.29     20.00
   27.8114     50.62     53.46    -31.06     20.00
   27.8216     51.36     53.74    -30.60     20.00
   27.8318     52.20     54.02    -30.05     20.00
   27.8419     51.23     54.31    -31.30     20.00
   27.8521     53.15     54.60    -29.67     20.00
   27.8623     53.09     54.89    -30.02     20.00
   27.8724     53.03     55.19    -30.38     20.00
   27.8826     53.45     55.49    -30.26     20.00
   27.8928     53.34     55.79    -30.68     20.00
   27.9029     53.71     56.10    -30.61     20.00
   27.9131     54.01     56.41    -30.62     20.00
   27.9232     55.01     56.72    -29.93     20.00
   27.9334     55.38     57.04    -29.88     20.00
   27.9436     54.34     57.36    -31.24     20.00
   27.9537     54.91     57.68    -30.99     20.00
   27.9639     56.20     58.00    -30.02     20.00
   27.9741     56.72     58.33    -29.83     20.00
   27.9842     54.95     58.65    -31.93     20.00
   27.9944     56.51     58.98    -30.70     20.00
   28.0046     57.04     59.32    -30.50     20.00
   28.0147     56.95     59.65    -30.92     20.00
   28.0249     57.04     59.98    -31.17     20.00
   28.0351     57.86     60.32    -30.68     20.00
   28.0452     59.20     60.66    -29.68     20.00
   28.0554     58.04     60.99    -31.18     20.00
   28.0655     58.15     61.33    -31.40     20.00
   28.0757     59.08     61.67    -30.81     20.00
   28.0859     60.32     62.01    -29.91     20.00
   28.0960     59.29     62.34    -31.27     20.00
   28.1062     61.12     62.68    -29.78     20.00
   28.1164     61.20     63.02    -30.04     20.00
   28.1265     59.49     63.35    -32.08     20.00
   28.1367     61.95     63.69    -29.96     20.00
   28.1469     61.23     64.02    -31.01     20.00
   28.1570     62.41     64.35    -30.16     20.00
   28.1672     62.80     64.67    -30.10     20.00
   28.1774     63.87     65.00    -29.35     20.00
   28.1875     64.90     65.32    -28.64     20.00
   28.1977     63.21     65.64    -30.65     20.00
   28.2079     65.73     65.95    -28.44     20.00
   28.2180     64.45     66.26    -30.03     20.00
   28.2282     65.54     66.56    -29.24     20.00
   28.2383     66.88     66.86    -28.20     20.00
   28.2485     66.42     67.15    -28.96     20.00
   28.2587     66.93     67.44    -28.73     20.00
   28.2688     67.23     67.72    -28.71     20.00
   28.2790     67.86     68.00    -28.36     20.00
   28.2892     69.16     68.27    -27.33     20.00
   28.2993     68.26     68.52    -28.49     20.00
   28.3095     70.02     68.78    -26.98     20.00
   28.3197     70.11     69.02    -27.13     20.00
   28.3298     69.15     69.25    -28.33     20.00
   28.3400     69.21     69.48    -28.49     20.00
   28.3502     70.25     69.70    -27.67     20.00
   28.3603     70.48     69.90    -27.64     20.00
   28.3705     71.93     70.10    -26.39     20.00
   28.3806     70.88     70.28    -27.63     20.00
   28.3908     71.62     70.46    -27.06     20.00
   28.4010     71.02     70.62    -27.82     20.00
   28.4111     72.40     70.77    -26.59     20.00
   28.4213     72.20     70.91    -26.93     20.00
   28.4315     71.82     71.04    -27.44     20.00
   28.4416     72.16     71.15    -27.21     20.00
   28.4518     72.38     71.25    -27.10     20.00
   28.4620     72.41     71.34    -27.16     20.00
   28.4721     72.92     71.42    -26.72     20.00
   28.4823     73.27     71.48    -26.43     20.00
   28.4925     72.91     71.53    -26.84     20.00
   28.5026     74.10     71.57    -25.69     20.00
   28.5128     73.03     71.59    -26.78     20.00
   28.5230     72.40     71.60    -27.42     20.00
   28.5331     74.24     71.59    -25.57     20.00
   28.5433     73.81     71.57    -25.99     20.00
   28.5534     73.89     71.54    -25.87     20.00
   28.5636     72.95     71.50    -26.77     20.00
   28.5738     73.16     71.44    -26.50     20.00
   28.5839     71.91     71.37    -27.68     20.00
   28.5941     73.21     71.28    -26.29     20.00
   28.6043     72.77     71.18    -26.63     20.00
   28.6144     73.51     71.07    -25.78     20.00
   28.6246     72.21     70.95    -26.96     20.00
   28.6348     71.30     70.81    -27.73     20.00
   28.6449     71.38     70.67    -27.51     20.00
   28.6551     72.53     70.51    -26.20     20.00
   28.6653     71.51     70.34    -27.05     20.00
   28.6754     71.36     70.16    -27.02     20.00
   28.6856     70.52     69.96    -27.67     20.00
   28.6957     72.09     69.76    -25.90     20.00
   28.7059     70.73     69.55    -27.04     20.00
   28.7161     70.21     69.33    -27.34     20.00
   28.7262     71.30     69.10    -26.02     20.00
   28.7364     69.22     68.86    -27.86     20.00
   28.7466     70.10     68.61    -26.73     20.00
   28.7567     69.43     68.36    -27.15     20.00
   28.7669     68.77     68.10    -27.55     20.00
   28.7771     68.94     67.82    -27.11     20.00
   28.7872     69.29     67.55    -26.48     20.00
   28.7974     68.71     67.27    -26.78     20.00
   28.8076     68.28     66.98    -26.92     20.00
   28.8177     67.76     66.69    -27.15     20.00
   28.8279     67.62     66.39    -26.99     20.00
   28.8381     66.92     66.08    -27.38     20.00
   28.8482     66.65     65.77    -27.35     20.00
   28.8584     66.80     65.46    -26.88     20.00
   28.8685     65.40     65.15    -27.97     20.00
   28.8787     64.49     64.83    -28.56     20.00
   28.8889     64.90     64.51    -27.83     20.00
   28.8990     64.04     64.19    -28.37     20.00
   28.9092     63.35     63.86    -28.73     20.00
   28.9194     63.46     63.53    -28.29     20.00
   28.9295     62.63     63.20    -28.80     20.00
   28.9397     62.15     62.87    -28.94     20.00
   28.9499     62.91     62.54    -27.85     20.00
   28.9600     62.90     62.21    -27.53     20.00
   28.9702     60.75     61.88    -29.35     20.00
   28.9804     61.26     61.54    -28.51     20.00
   28.9905     60.50     61.21    -28.94     20.00
   29.0007     61.06     60.88    -28.04     20.00
   29.0108     59.63     60.55    -29.15     20.00
   29.0210     59.06     60.22    -29.38     20.00
   29.0312     59.45     59.89    -28.66     20.00
   29.0413     59.05     59.57    -28.74     20.00
   29.0515     59.57     59.24    -27.89     20.00
   29.0617     58.60     58.92    -28.54     20.00
   29.0718     58.68     58.60    -28.14     20.00
   29.0820     57.83     58.27    -28.67     20.00
   29.0922     56.76     57.95    -29.42     20.00
   29.1023     56.72     57.64    -29.14     20.00
   29.1125     55.88     57.33    -29.67     20.00
   29.1227     56.16     57.01    -29.08     20.00
   29.1328     55.51     56.71    -29.42     20.00
   29.1430     54.38     56.40    -30.24     20.00
   29.1531     56.11     56.10    -28.21     20.00
   29.1633     55.43     55.80    -28.59     20.00
   29.1735     54.54     55.51    -29.19     20.00
   29.1836     53.59     55.22    -29.85     20.00
   29.1938     54.49     54.93    -28.66     20.00
   29.2040     54.01     54.64    -28.85     20.00
   29.2141     52.82     54.36    -29.76     20.00
   29.2243     52.93     54.08    -29.37     20.00
   29.2345     51.74     53.80    -30.28     20.00
   29.2446     53.74     53.53    -28.02     20.00
   29.2548     51.36     53.26    -30.13     20.00
   29.2650     52.21     53.00    -29.01     20.00
   29.2751     51.07     52.74    -29.89     20.00
   29.2853     51.07     52.49    -29.64     20.00
   29.2955     51.49     52.23    -28.96     20.00
   29.3056     50.78     51.99    -29.43     20.00
   29.3158     49.59     51.74    -30.37     20.00
   29.3259     50.26     51.50    -29.46     20.00
   29.3361     50.73     51.26    -28.76     20.00
   29.3463     50.70     51.03    -28.55     20.00
   29.3564     49.71     50.80    -29.31     20.00
   29.3666     50.44     50.58    -28.36     20.00
   29.3768     48.98     50.36    -29.60     20.00
   29.3869     48.59     50.14    -29.77     20.00
   29.3971     48.92     49.93    -29.23     20.00
   29.4073     48.99     49.72    -28.95     20.00
   29.4174     48.16     49.51    -29.57     20.00
   29.4276     48.34     49.31    -29.19     20.00
   29.4378     47.26     49.11    -30.07     20.00
   29.4479     48.78     48.92    -28.36     20.00
   29.4581     48.29     48.73    -28.66     20.00
   29.4682     47.39     48.54    -29.37     20.00
   29.4784     47.41     48.36    -29.17     20.00
   29.4886     46.85     48.18    -29.55     20.00
   29.4987     46.49     48.00    -29.74     20.00
   29.5089     46.45     47.83    -29.60     20.00
   29.5191     46.81     47.66    -29.07     20.00
   29.5292     46.49     47.50    -29.23     20.00
   29.5394     45.92     47.33    -29.64     20.00
   29.5496     45.93     47.17    -29.47     20.00
   29.5597     45.65     47.02    -29.59     20.00
   29.5699     46.73     46.87    -28.36     20.00
   29.5801     45.79     46.72    -29.15     20.00
   29.5902     45.23     46.57    -29.56     20.00
   29.6004     45.43     46.43    -29.22     20.00
   29.6106     45.37     46.29    -29.14     20.00
   29.6207     44.78     46.15    -29.59     20.00
   29.6309     44.88     46.01    -29.36     20.00
   29.6410     45.15     45.88    -28.95     20.00
   29.6512     44.23     45.75    -29.74     20.00
   29.6614     44.95     45.62    -28.90     20.00
   29.6715     45.44     45.50    -28.28     20.00
   29.6817     43.74     45.38    -29.86     20.00
   29.6919     46.32     45.26    -27.16     20.00
   29.7020     44.59     45.14    -28.77     20.00
   29.7122     44.29     45.02    -28.95     20.00
   29.7224     43.57     44.91    -29.56     20.00
   29.7325     44.01     44.80    -29.01     20.00
   29.7427     44.10     44.69    -28.81     20.00
   29.7529     44.64     44.58    -28.16     20.00
   29.7630     44.48     44.47    -28.22     20.00
   29.7732     42.99     44.37    -29.60     20.00
   29.7833     43.11     44.27    -29.38     20.00
   29.7935     44.62     44.16    -27.77     20.00
   29.8037     42.95     44.06    -29.34     20.00
   29.8138     43.24     43.97    -28.95     20.00
   29.8240     43.12     43.87    -28.97     20.00
   29.8342     43.48     43.77    -28.51     20.00
   29.8443     42.52     43.68    -29.38     20.00
   29.8545     43.40     43.58    -28.40     20.00
   29.8647     42.76     43.49    -28.95     20.00
   29.8748     43.16     43.40    -28.46     20.00
   29.8850     43.08     43.31    -28.45     20.00
   29.8952     43.02     43.22    -28.42     20.00
   29.9053     43.20     43.13    -28.15     20.00
   29.9155     43.67     43.04    -27.59     20.00
   29.9257     43.63     42.95    -27.54     20.00
   29.9358     42.79     42.86    -28.30     20.00
   29.9460     43.13     42.78    -27.87     20.00
   29.9561     43.17     42.69    -27.74     20.00
   29.9663     43.21     42.61    -27.62     20.00
   29.9765     43.37     42.52    -27.37     20.00
   29.9866     42.09     42.44    -28.57     20.00
   29.9968     41.99     42.35    -28.58     20.00
   30.0070     41.73     42.27    -28.76     20.00
   30.0171     42.55     42.18    -27.86     20.00
   30.0273     41.86     42.10    -28.46     20.00
   30.0375     41.68     42.02    -28.56     20.00
   30.0476     41.55     41.93    -28.60     20.00
   30.0578     42.35     41.85    -27.72     20.00
   30.0680     41.91     41.76    -28.08     20.00
   30.0781     42.17     41.68    -27.73     20.00
   30.0883     41.44     41.60    -28.38     20.00
   30.0984     41.94     41.52    -27.80     20.00
   30.1086     41.07     41.43    -28.58     20.00
   30.1188     41.77     41.35    -27.80     20.00
   30.1289     41.91     41.26    -27.58     20.00
   30.1391     41.89     41.18    -27.51     20.00
   30.1493     40.93     41.10    -28.39     20.00
   30.1594     42.24     41.01    -26.99     20.00
   30.1696     39.95     40.93    -29.20     20.00
   30.1798     41.60     40.84    -27.47     20.00
   30.1899     40.04     40.76    -28.94     20.00
   30.2001     40.35     40.67    -28.55     20.00
   30.2103     41.72     40.59    -27.09     20.00
   30.2204     40.58     40.50    -28.15     20.00
   30.2306     39.78     40.42    -28.86     20.00
   30.2408     40.26     40.33    -28.30     20.00
   30.2509     40.12     40.25    -28.35     20.00
   30.2611     40.42     40.16    -27.96     20.00
   30.2712     40.65     40.08    -27.65     20.00
   30.2814     40.22     39.99    -27.99     20.00
   30.2916     39.88     39.90    -28.25     20.00
   30.3017     40.03     39.82    -28.01     20.00
   30.3119     38.93     39.73    -29.02     20.00
   30.3221     39.66     39.64    -28.20     20.00
   30.3322     39.70     39.56    -28.08     20.00
   30.3424     38.85     39.47    -28.84     20.00
   30.3526     39.65     39.38    -27.95     20.00
   30.3627     39.18     39.29    -28.34     20.00
   30.3729     39.81     39.21    -27.62     20.00
   30.3831     38.30     39.12    -29.04     20.00
   30.3932     38.15     39.03    -29.10     20.00
   30.4034     38.26     38.94    -28.90     20.00
   30.4135     38.16     38.85    -28.91     20.00
   30.4237     38.77     38.76    -28.22     20.00
   30.4339     37.90     38.68    -29.00     20.00
   30.4440     37.90     38.59    -28.91     20.00
   30.4542     38.40     38.50    -28.32     20.00
   30.4644     37.65     38.41    -28.98     20.00
   30.4745     37.97     38.32    -28.57     20.00
   30.4847     37.92     38.23    -28.53     20.00
   30.4949     38.09     38.14    -28.28     20.00
   30.5050     37.51     38.06    -28.77     20.00
   30.5152     37.90     37.97    -28.29     20.00
   30.5254     37.31     37.88    -28.79     20.00
   30.5355     36.71     37.79    -29.30     20.00
   30.5457     37.61     37.70    -28.31     20.00
   30.5559     37.56     37.61    -28.28     20.00
   30.5660     36.45     37.53    -29.30     20.00
   30.5762     35.77     37.44    -29.89     20.00
   30.5863     37.52     37.35    -28.05     20.00
   30.5965     36.23     37.26    -29.25     20.00
   30.6067     36.51     37.17    -28.89     20.00
   30.6168     36.80     37.09    -28.51     20.00
   30.6270     35.72     37.00    -29.50     20.00
   30.6372     37.27     36.91    -27.87     20.00
   30.6473     36.49     36.83    -28.56     20.00
   30.6575     36.58     36.74    -28.38     20.00
   30.6677     36.41     36.65    -28.47     20.00
   30.6778     36.39     36.57    -28.40     20.00
   30.6880     35.95     36.48    -28.75     20.00
   30.6982     35.76     36.40    -28.86     20.00
   30.7083     36.02     36.31    -28.51     20.00
   30.7185     36.66     36.23    -27.79     20.00
   30.7286     35.78     36.14    -28.59     20.00
   30.7388     35.72     36.06    -28.56     20.00
   30.7490     34.99     35.98    -29.21     20.00
   30.7591     35.26     35.89    -28.85     20.00
   30.7693     35.74     35.81    -28.29     20.00
   30.7795     35.40     35.73    -28.55     20.00
   30.7896     35.05     35.65    -28.82     20.00
   30.7998     34.65     35.56    -29.14     20.00
   30.8100     34.37     35.48    -29.33     20.00
   30.8201     35.49     35.40    -28.13     20.00
   30.8303     35.71     35.32    -27.83     20.00
   30.8405     34.84     35.24    -28.62     20.00
   30.8506     35.91     35.16    -27.47     20.00
   30.8608     35.26     35.08    -28.04     20.00
   30.8710     35.87     35.00    -27.36     20.00
   30.8811     34.77     34.93    -28.38     20.00
   30.8913     35.64     34.85    -27.43     20.00
   30.9014     34.51     34.77    -28.48     20.00
   30.9116     34.34     34.70    -28.58     20.00
   30.9218     35.05     34.62    -27.79     20.00
   30.9319     34.51     34.54    -28.26     20.00
   30.9421     33.97     34.47    -28.72     20.00
   30.9523     34.96     34.39    -27.66     20.00
   30.9624     34.02     34.32    -28.52     20.00
   30.9726     34.23     34.25    -28.24     20.00
   30.9828     35.49     34.18    -26.91     20.00
   30.9929     33.62     34.10    -28.71     20.00
   31.0031     34.86     34.03    -27.39     20.00
   31.0133     34.27     33.96    -27.91     20.00
   31.0234     33.99     33.89    -28.12     20.00
   31.0336     33.91     33.82    -28.13     20.00
   31.0437     33.90     33.75    -28.08     20.00
   31.0539     33.65     33.68    -28.26     20.00
   31.0641     34.16     33.62    -27.68     20.00
   31.0742     34.20     33.55    -27.57     20.00
   31.0844     34.04     33.48    -27.67     20.00
   31.0946     34.23     33.42    -27.41     20.00
   31.1047     33.63     33.35    -27.95     20.00
   31.1149     32.96     33.29    -28.55     20.00
   31.1251     33.90     33.22    -27.55     20.00
   31.1352     33.59     33.16    -27.79     20.00
   31.1454     33.12     33.10    -28.20     20.00
   31.1556     33.43     33.04    -27.83     20.00
   31.1657     33.43     32.98    -27.77     20.00
   31.1759     32.87     32.92    -28.27     20.00
   31.1860     34.02     32.86    -27.06     20.00
   31.1962     33.87     32.80    -27.15     20.00
   31.2064     32.63     32.74    -28.33     20.00
   31.2165     32.62     32.68    -28.28     20.00
   31.2267     33.14     32.63    -27.71     20.00
   31.2369     32.96     32.57    -27.83     20.00
   31.2470     33.04     32.51    -27.70     20.00
   31.2572     33.02     32.46    -27.66     20.00
   31.2674     32.80     32.40    -27.83     20.00
   31.2775     32.43     32.35    -28.14     20.00
   31.2877     33.65     32.30    -26.87     20.00
   31.2979     33.16     32.25    -27.31     20.00
   31.3080     32.67     32.20    -27.75     20.00
   31.3182     33.66     32.15    -26.71     20.00
   31.3284     33.10     32.10    -27.22     20.00
   31.3385     33.60     32.05    -26.67     20.00
   31.3487     34.05     32.00    -26.17     20.00
   31.3588     31.99     31.95    -28.18     20.00
   31.3690     32.57     31.91    -27.56     20.00
   31.3792     32.43     31.86    -27.65     20.00
   31.3893     32.83     31.81    -27.21     20.00
   31.3995     32.16     31.77    -27.83     20.00
   31.4097     32.73     31.73    -27.22     20.00
   31.4198     32.43     31.68    -27.47     20.00
   31.4300     33.04     31.64    -26.82     20.00
   31.4402     33.01     31.60    -26.81     20.00
   31.4503     32.57     31.56    -27.21     20.00
   31.4605     32.70     31.52    -27.04     20.00
   31.4707     32.13     31.48    -27.57     20.00
   31.4808     31.90     31.44    -27.76     20.00
   31.4910     32.65     31.40    -26.97     20.00
   31.5011     32.73     31.37    -26.86     20.00
   31.5113     32.62     31.33    -26.93     20.00
   31.5215     31.49     31.29    -28.03     20.00
   31.5316     32.93     31.26    -26.55     20.00
   31.5418     31.54     31.23    -27.91     20.00
   31.5520     33.11     31.19    -26.30     20.00
   31.5621     31.97     31.16    -27.41     20.00
   31.5723     32.45     31.13    -26.90     20.00
   31.5825     32.95     31.10    -26.37     20.00
   31.5926     32.89     31.07    -26.40     20.00
   31.6028     32.84     31.04    -26.42     20.00
   31.6130     32.07     31.01    -27.16     20.00
   31.6231     31.76     30.98    -27.44     20.00
   31.6333     32.11     30.95    -27.06     20.00
   31.6435     33.18     30.93    -25.97     20.00
   31.6536     32.08     30.90    -27.04     20.00
   31.6638     32.68     30.88    -26.42     20.00
   31.6739     32.66     30.85    -26.41     20.00
   31.6841     31.82     30.83    -27.23     20.00
   31.6943     31.86     30.80    -27.17     20.00
   31.7044     32.48     30.78    -26.52     20.00
   31.7146     32.55     30.76    -26.43     20.00
   31.7248     32.93     30.74    -26.03     20.00
   31.7349     32.23     30.72    -26.71     20.00
   31.7451     32.74     30.70    -26.18     20.00
   31.7553     31.75     30.68    -27.15     20.00
   31.7654     32.12     30.66    -26.77     20.00
   31.7756     31.63     30.65    -27.24     20.00
   31.7858     31.90     30.63    -26.95     20.00
   31.7959     32.16     30.62    -26.68     20.00
   31.8061     32.62     30.60    -26.20     20.00
   31.8162     31.77     30.59    -27.04     20.00
   31.8264     32.63     30.57    -26.16     20.00
   31.8366     32.01     30.56    -26.77     20.00
   31.8467     32.71     30.55    -26.06     20.00
   31.8569     33.07     30.54    -25.69     20.00
   31.8671     32.70     30.53    -26.05     20.00
   31.8772     31.76     30.52    -26.98     20.00
   31.8874     32.38     30.51    -26.35     20.00
   31.8976     33.42     30.50    -25.30     20.00
   31.9077     31.85     30.49    -26.86     20.00
   31.9179     32.35     30.48    -26.35     20.00
   31.9281     31.52     30.48    -27.18     20.00
   31.9382     31.20     30.47    -27.49     20.00
   31.9484     32.70     30.46    -25.99     20.00
   31.9586     32.40     30.46    -26.28     20.00
   31.9687     31.90     30.46    -26.78     20.00
   31.9789     32.18     30.45    -26.49     20.00
   31.9890     32.73     30.45    -25.94     20.00
   31.9992     32.54     30.45    -26.13     20.00
   32.0094     32.37     30.45    -26.30     20.00
   32.0195     32.09     30.45    -26.58     20.00
   32.0297     32.43     30.45    -26.24     20.00
   32.0399     31.91     30.45    -26.76     20.00
   32.0500     32.46     30.45    -26.21     20.00
   32.0602     33.02     30.45    -25.65     20.00
   32.0704     32.61     30.45    -26.06     20.00
   32.0805     33.38     30.45    -25.30     20.00
   32.0907     32.01     30.46    -26.67     20.00
   32.1009     32.14     30.46    -26.54     20.00
   32.1110     33.00     30.47    -25.69     20.00
   32.1212     32.86     30.47    -25.83     20.00
   32.1313     32.88     30.48    -25.82     20.00
   32.1415     33.01     30.48    -25.70     20.00
   32.1517     31.90     30.49    -26.81     20.00
   32.1618     32.38     30.50    -26.34     20.00
   32.1720     32.26     30.51    -26.47     20.00
   32.1822     32.43     30.52    -26.31     20.00
   32.1923     32.74     30.53    -26.01     20.00
   32.2025     32.26     30.54    -26.50     20.00
   32.2127     32.19     30.55    -26.58     20.00
   32.2228     32.71     30.56    -26.07     20.00
   32.2330     32.30     30.57    -26.49     20.00
   32.2432     32.55     30.58    -26.25     20.00
   32.2533     32.21     30.59    -26.61     20.00
   32.2635     32.59     30.61    -26.24     20.00
   32.2737     33.38     30.62    -25.46     20.00
   32.2838     33.29     30.63    -25.57     20.00
   32.2940     32.65     30.65    -26.22     20.00
   32.3041     32.21     30.66    -26.68     20.00
   32.3143     32.30     30.68    -26.60     20.00
   32.3245     32.38     30.70    -26.54     20.00
   32.3346     32.56     30.71    -26.37     20.00
   32.3448     33.51     30.73    -25.44     20.00
   32.3550     33.24     30.75    -25.73     20.00
   32.3651     32.80     30.76    -26.19     20.00
   32.3753     33.09     30.78    -25.91     20.00
   32.3855     33.68     30.80    -25.34     20.00
   32.3956     32.58     30.82    -26.46     20.00
   32.4058     32.37     30.84    -26.69     20.00
   32.4160     33.32     30.86    -25.76     20.00
   32.4261     32.86     30.88    -26.24     20.00
   32.4363     32.53     30.90    -26.59     20.00
   32.4464     32.63     30.92    -26.51     20.00
   32.4566     33.45     30.94    -25.71     20.00
   32.4668     33.18     30.96    -26.00     20.00
   32.4769     32.27     30.98    -26.94     20.00
   32.4871     32.89     31.01    -26.34     20.00
   32.4973     32.82     31.03    -26.43     20.00
   32.5074     33.26     31.05    -26.01     20.00
   32.5176     33.12     31.07    -26.18     20.00
   32.5278     32.84     31.10    -26.48     20.00
   32.5379     32.83     31.12    -26.51     20.00
   32.5481     32.77     31.14    -26.60     20.00
   32.5583     33.59     31.17    -25.80     20.00
   32.5684     33.06     31.19    -26.35     20.00
   32.5786     31.98     31.22    -27.46     20.00
   32.5888     32.01     31.24    -27.45     20.00
   32.5989     33.01     31.27    -26.48     20.00
   32.6091     31.93     31.29    -27.58     20.00
   32.6192     33.27     31.32    -26.27     20.00
   32.6294     32.74     31.34    -26.82     20.00
   32.6396     31.81     31.37    -27.78     20.00
   32.6497     32.93     31.39    -26.68     20.00
   32.6599     32.71     31.42    -26.93     20.00
   32.6701     32.10     31.44    -27.56     20.00
   32.6802     33.26     31.47    -26.43     20.00
   32.6904     32.78     31.49    -26.94     20.00
   32.7006     31.88     31.52    -27.86     20.00
   32.7107     32.65     31.55    -27.12     20.00
   32.7209     33.76     31.57    -26.03     20.00
   32.7311     32.81     31.60    -27.01     20.00
   32.7412     32.70     31.62    -27.15     20.00
   32.7514     33.27     31.65    -26.60     20.00
   32.7615     32.09     31.67    -27.81     20.00
   32.7717     33.10     31.70    -26.82     20.00
   32.7819     32.61     31.73    -27.34     20.00
   32.7920     32.24     31.75    -27.73     20.00
   32.8022     32.77     31.78    -27.23     20.00
   32.8124     32.49     31.80    -27.53     20.00
   32.8225     33.41     31.83    -26.64     20.00
   32.8327     32.41     31.85    -27.66     20.00
   32.8429     32.26     31.87    -27.84     20.00
   32.8530     33.23     31.90    -26.89     20.00
   32.8632     32.60     31.92    -27.55     20.00
   32.8734     32.95     31.95    -27.22     20.00
   32.8835     32.79     31.97    -27.40     20.00
   32.8937     32.31     31.99    -27.91     20.00
   32.9039     33.04     32.02    -27.20     20.00
   32.9140     32.62     32.04    -27.64     20.00
   32.9242     32.60     32.06    -27.68     20.00
   32.9343     33.14     32.08    -27.16     20.00
   32.9445     32.13     32.10    -28.20     20.00
   32.9547     32.29     32.12    -28.06     20.00
   32.9648     32.71     32.14    -27.66     20.00
   32.9750     31.64     32.16    -28.75     20.00
   32.9852     32.49     32.18    -27.92     20.00
   32.9953     32.73     32.20    -27.69     20.00
   33.0055     32.34     32.22    -28.10     20.00
   33.0157     32.37     32.24    -28.09     20.00
   33.0258     33.01     32.25    -27.47     20.00
   33.0360     31.94     32.27    -28.55     20.00
   33.0462     32.98     32.29    -27.53     20.00
   33.0563     33.09     32.30    -27.43     20.00
   33.0665     32.51     32.32    -28.03     20.00
   33.0766     31.92     32.33    -28.63     20.00
   33.0868     33.18     32.34    -27.39     20.00
   33.0970     32.73     32.36    -27.85     20.00
   33.1071     32.14     32.37    -28.45     20.00
   33.1173     33.17     32.38    -27.43     20.00
   33.1275     31.95     32.39    -28.66     20.00
   33.1376     32.83     32.40    -27.79     20.00
   33.1478     32.96     32.41    -27.67     20.00
   33.1580     32.48     32.42    -28.16     20.00
   33.1681     33.63     32.42    -27.01     20.00
   33.1783     33.09     32.43    -27.56     20.00
   33.1885     32.49     32.43    -28.17     20.00
   33.1986     32.98     32.44    -27.68     20.00
   33.2088     32.43     32.44    -28.23     20.00
   33.2189     33.23     32.44    -27.44     20.00
   33.2291     32.61     32.44    -28.06     20.00
   33.2393     33.23     32.45    -27.44     20.00
   33.2494     32.23     32.44    -28.44     20.00
   33.2596     33.16     32.44    -27.51     20.00
   33.2698     32.55     32.44    -28.11     20.00
   33.2799     32.69     32.44    -27.97     20.00
   33.2901     32.58     32.43    -28.08     20.00
   33.3003     33.15     32.43    -27.50     20.00
   33.3104     33.37     32.42    -27.27     20.00
   33.3206     32.55     32.41    -28.09     20.00
   33.3308     33.11     32.41    -27.52     20.00
   33.3409     32.65     32.40    -27.97     20.00
   33.3511     31.86     32.39    -28.75     20.00
   33.3613     34.15     32.38    -26.45     20.00
   33.3714     33.79     32.36    -26.80     20.00
   33.3816     33.08     32.35    -27.49     20.00
   33.3917     33.10     32.34    -27.46     20.00
   33.4019     32.91     32.32    -27.63     20.00
   33.4121     32.91     32.30    -27.62     20.00
   33.4222     32.85     32.29    -27.66     20.00
   33.4324     33.70     32.27    -26.79     20.00
   33.4426     33.04     32.25    -27.43     20.00
   33.4527     32.85     32.23    -27.60     20.00
   33.4629     32.87     32.21    -27.56     20.00
   33.4731     32.56     32.19    -27.85     20.00
   33.4832     32.52     32.16    -27.86     20.00
   33.4934     32.93     32.14    -27.43     20.00
   33.5036     32.51     32.11    -27.82     20.00
   33.5137     32.79     32.09    -27.52     20.00
   33.5239     32.92     32.06    -27.36     20.00
   33.5340     33.04     32.03    -27.21     20.00
   33.5442     32.37     32.00    -27.86     20.00
   33.5544     31.95     31.97    -28.25     20.00
   33.5645     31.69     31.94    -28.48     20.00
   33.5747     31.87     31.91    -28.26     20.00
   33.5849     31.10     31.88    -29.00     20.00
   33.5950     32.05     31.85    -28.02     20.00
   33.6052     32.26     31.81    -27.77     20.00
   33.6154     32.22     31.78    -27.78     20.00
   33.6255     31.37     31.74    -28.60     20.00
   33.6357     31.34     31.71    -28.59     20.00
   33.6459     31.28     31.67    -28.61     20.00
   33.6560     31.24     31.63    -28.61     20.00
   33.6662     31.75     31.59    -28.07     20.00
   33.6764     31.12     31.56    -28.66     20.00
   33.6865     31.65     31.52    -28.09     20.00
   33.6967     31.16     31.48    -28.54     20.00
   33.7068     30.87     31.44    -28.79     20.00
   33.7170     30.30     31.39    -29.32     20.00
   33.7272     30.16     31.35    -29.41     20.00
   33.7373     30.41     31.31    -29.12     20.00
   33.7475     31.26     31.27    -28.23     20.00
   33.7577     29.50     31.22    -29.94     20.00
   33.7678     30.57     31.18    -28.83     20.00
   33.7780     30.23     31.13    -29.13     20.00
   33.7882     30.16     31.09    -29.15     20.00
   33.7983     30.17     31.04    -29.10     20.00
   33.8085     30.05     31.00    -29.17     20.00
   33.8187     29.52     30.95    -29.65     20.00
   33.8288     30.21     30.90    -28.92     20.00
   33.8390     29.47     30.86    -29.61     20.00
   33.8491     29.55     30.81    -29.48     20.00
   33.8593     30.25     30.76    -28.73     20.00
   33.8695     29.48     30.71    -29.46     20.00
   33.8796     29.51     30.67    -29.38     20.00
   33.8898     29.37     30.62    -29.47     20.00
   33.9000     28.63     30.57    -30.16     20.00
   33.9101     29.57     30.52    -29.17     20.00
   33.9203     28.18     30.47    -30.51     20.00
   33.9305     28.80     30.42    -29.84     20.00
   33.9406     28.64     30.37    -29.95     20.00
   33.9508     29.26     30.32    -29.28     20.00
   33.9610     28.38     30.27    -30.11     20.00
   33.9711     28.61     30.22    -29.83     20.00
   33.9813     29.20     30.17    -29.19     20.00
   33.9915     28.71     30.12    -29.63     20.00
   34.0016     27.74     30.07    -30.55     20.00
   34.0118     28.46     30.02    -29.78     20.00
   34.0219     28.37     29.97    -29.82     20.00
   34.0321     28.23     29.92    -29.91     20.00
   34.0423     28.24     29.86    -29.85     20.00
   34.0524     28.09     29.81    -29.95     20.00
   34.0626     27.86     29.76    -30.12     20.00
   34.0728     27.40     29.71    -30.53     20.00
   34.0829     27.12     29.66    -30.76     20.00
   34.0931     27.77     29.61    -30.06     20.00
   34.1033     28.17     29.56    -29.61     20.00
   34.1134     27.55     29.51    -30.18     20.00
   34.1236     26.70     29.46    -30.98     20.00
   34.1338     27.10     29.41    -30.53     20.00
   34.1439     27.19     29.36    -30.39     20.00
   34.1541     27.84     29.30    -29.69     20.00
   34.1642     27.57     29.25    -29.91     20.00
   34.1744     27.06     29.20    -30.37     20.00
   34.1846     27.05     29.15    -30.33     20.00
   34.1947     27.66     29.10    -29.67     20.00
   34.2049     26.95     29.05    -30.33     20.00
   34.2151     27.38     29.00    -29.85     20.00
   34.2252     26.55     28.95    -30.63     20.00
   34.2354     27.49     28.90    -29.64     20.00
   34.2456     27.26     28.85    -29.82     20.00
   34.2557     27.04     28.81    -29.99     20.00
   34.2659     26.97     28.76    -30.01     20.00
   34.2761     27.20     28.71    -29.73     20.00
   34.2862     26.59     28.66    -30.29     20.00
   34.2964     26.38     28.61    -30.45     20.00
   34.3066     27.02     28.56    -29.76     20.00
   34.3167     26.65     28.51    -30.09     20.00
   34.3269     25.66     28.47    -31.03     20.00
   34.3370     26.58     28.42    -30.06     20.00
   34.3472     26.96     28.37    -29.63     20.00
   34.3574     27.18     28.32    -29.37     20.00
   34.3675     26.54     28.28    -29.96     20.00
   34.3777     27.01     28.23    -29.44     20.00
   34.3879     26.75     28.18    -29.66     20.00
   34.3980     26.12     28.14    -30.24     20.00
   34.4082     26.45     28.09    -29.86     20.00
   34.4184     27.18     28.05    -29.09     20.00
   34.4285     26.65     28.00    -29.57     20.00
   34.4387     25.93     27.96    -30.25     20.00
   34.4489     26.20     27.91    -29.93     20.00
   34.4590     26.23     27.87    -29.86     20.00
   34.4692     27.21     27.82    -28.83     20.00
   34.4793     25.84     27.78    -30.16     20.00
   34.4895     26.18     27.73    -29.78     20.00
   34.4997     25.85     27.69    -30.06     20.00
   34.5098     25.91     27.65    -29.96     20.00
   34.5200     25.23     27.60    -30.60     20.00
   34.5302     26.48     27.56    -29.30     20.00
   34.5403     26.49     27.52    -29.25     20.00
   34.5505     25.90     27.48    -29.80     20.00
   34.5607     26.12     27.44    -29.54     20.00
   34.5708     26.10     27.39    -29.52     20.00
   34.5810     25.35     27.35    -30.23     20.00
   34.5912     25.50     27.31    -30.04     20.00
   34.6013     25.74     27.27    -29.75     20.00
   34.6115     26.41     27.23    -29.04     20.00
   34.6217     25.72     27.19    -29.69     20.00
   34.6318     25.57     27.15    -29.81     20.00
   34.6420     26.01     27.11    -29.33     20.00
   34.6521     25.68     27.08    -29.62     20.00
   34.6623     25.52     27.04    -29.74     20.00
   34.6725     25.86     27.00    -29.36     20.00
   34.6826     25.74     26.96    -29.44     20.00
   34.6928     25.20     26.92    -29.95     20.00
   34.7030     25.09     26.89    -30.02     20.00
   34.7131     25.49     26.85    -29.58     20.00
   34.7233     25.36     26.81    -29.68     20.00
   34.7335     25.96     26.78    -29.04     20.00
   34.7436     25.66     26.74    -29.30     20.00
   34.7538     25.23     26.71    -29.70     20.00
   34.7640     25.16     26.67    -29.73     20.00
   34.7741     25.44     26.64    -29.42     20.00
   34.7843     24.73     26.60    -30.09     20.00
   34.7944     25.71     26.57    -29.08     20.00
   34.8046     25.77     26.53    -28.99     20.00
   34.8148     24.84     26.50    -29.88     20.00
   34.8249     25.89     26.47    -28.80     20.00
   34.8351     24.91     26.43    -29.75     20.00
   34.8453     24.59     26.40    -30.03     20.00
   34.8554     25.16     26.37    -29.43     20.00
   34.8656     25.77     26.34    -28.79     20.00
   34.8758     24.99     26.30    -29.54     20.00
   34.8859     25.54     26.27    -28.96     20.00
   34.8961     25.16     26.24    -29.30     20.00
   34.9063     24.39     26.21    -30.04     20.00
   34.9164     24.71     26.18    -29.69     20.00
   34.9266     25.61     26.15    -28.76     20.00
   34.9367     24.63     26.12    -29.71     20.00
   34.9469     24.99     26.09    -29.32     20.00
   34.9571     25.07     26.06    -29.21     20.00
   34.9672     25.52     26.03    -28.74     20.00
   34.9774     25.22     26.01    -29.01     20.00
   34.9876     24.96     25.98    -29.24     20.00
   34.9977     25.08     25.95    -29.09     20.00
   35.0079     24.63     25.92    -29.51     20.00
   35.0181     25.36     25.89    -28.76     20.00
   35.0282     25.21     25.87    -28.88     20.00
   35.0384     25.12     25.84    -28.94     20.00
   35.0486     25.11     25.81    -28.93     20.00
   35.0587     24.43     25.79    -29.58     20.00
   35.0689     24.43     25.76    -29.55     20.00
   35.0791     24.47     25.74    -29.49     20.00
   35.0892     24.84     25.71    -29.09     20.00
   35.0994     24.56     25.69    -29.35     20.00
   35.1095     25.23     25.66    -28.65     20.00
   35.1197     24.63     25.64    -29.23     20.00
   35.1299     25.52     25.61    -28.31     20.00
   35.1400     25.32     25.59    -28.49     20.00
   35.1502     24.62     25.56    -29.17     20.00
   35.1604     24.65     25.54    -29.11     20.00
   35.1705     25.10     25.52    -28.64     20.00
   35.1807     25.35     25.49    -28.37     20.00
   35.1909     25.17     25.47    -28.52     20.00
   35.2010     23.99     25.45    -29.68     20.00
   35.2112     25.26     25.43    -28.39     20.00
   35.2214     24.87     25.40    -28.76     20.00
   35.2315     24.45     25.38    -29.16     20.00
   35.2417     24.68     25.36    -28.90     20.00
   35.2518     24.04     25.34    -29.52     20.00
   35.2620     25.00     25.32    -28.54     20.00
   35.2722     24.28     25.30    -29.24     20.00
   35.2823     25.43     25.28    -28.07     20.00
   35.2925     24.50     25.26    -28.98     20.00
   35.3027     24.20     25.24    -29.26     20.00
   35.3128     24.54     25.22    -28.90     20.00
   35.3230     24.38     25.20    -29.04     20.00
   35.3332     25.09     25.18    -28.31     20.00
   35.3433     25.13     25.16    -28.25     20.00
   35.3535     24.38     25.14    -28.98     20.00
   35.3637     23.40     25.12    -29.94     20.00
   35.3738     24.49     25.10    -28.84     20.00
   35.3840     24.44     25.09    -28.87     20.00
   35.3942     24.72     25.07    -28.57     20.00
   35.4043     25.32     25.05    -27.95     20.00
   35.4145     25.01     25.03    -28.24     20.00
   35.4246     24.99     25.02    -28.25     20.00
   35.4348     23.66     25.00    -29.56     20.00
   35.4450     24.66     24.98    -28.54     20.00
   35.4551     23.68     24.96    -29.51     20.00
   35.4653     24.45     24.95    -28.72     20.00
   35.4755     24.99     24.93    -28.16     20.00
   35.4856     24.77     24.91    -28.37     20.00
   35.4958     24.73     24.90    -28.39     20.00
   35.5060     24.63     24.88    -28.47     20.00
   35.5161     23.93     24.87    -29.16     20.00
   35.5263     24.35     24.85    -28.72     20.00
   35.5365     25.20     24.84    -27.86     20.00
   35.5466     24.34     24.82    -28.70     20.00
   35.5568     24.79     24.81    -28.24     20.00
   35.5669     23.66     24.79    -29.35     20.00
   35.5771     24.48     24.78    -28.52     20.00
   35.5873     24.33     24.76    -28.65     20.00
   35.5974     24.29     24.75    -28.68     20.00
   35.6076     24.16     24.73    -28.80     20.00
   35.6178     23.94     24.72    -29.00     20.00
   35.6279     24.88     24.71    -28.05     20.00
   35.6381     24.38     24.69    -28.53     20.00
   35.6483     24.59     24.68    -28.31     20.00
   35.6584     24.41     24.66    -28.48     20.00
   35.6686     24.16     24.65    -28.71     20.00
   35.6788     24.68     24.64    -28.18     20.00
   35.6889     24.18     24.62    -28.67     20.00
   35.6991     25.26     24.61    -27.57     20.00
   35.7093     24.64     24.60    -28.18     20.00
   35.7194     24.77     24.59    -28.04     20.00
   35.7296     24.41     24.57    -28.39     20.00
   35.7397     24.12     24.56    -28.66     20.00
   35.7499     23.92     24.55    -28.85     20.00
   35.7601     24.04     24.54    -28.72     20.00
   35.7702     24.57     24.52    -28.18     20.00
   35.7804     24.34     24.51    -28.39     20.00
   35.7906     24.39     24.50    -28.33     20.00
   35.8007     24.28     24.49    -28.43     20.00
   35.8109     24.07     24.48    -28.63     20.00
   35.8211     24.45     24.47    -28.24     20.00
   35.8312     24.74     24.46    -27.94     20.00
   35.8414     24.13     24.44    -28.54     20.00
   35.8516     24.40     24.43    -28.25     20.00
   35.8617     23.64     24.42    -29.00     20.00
   35.8719     24.77     24.41    -27.86     20.00
   35.8820     23.88     24.40    -28.74     20.00
   35.8922     24.36     24.39    -28.25     20.00
   35.9024     24.33     24.38    -28.27     20.00
   35.9125     23.48     24.37    -29.11     20.00
   35.9227     24.60     24.36    -27.98     20.00
   35.9329     24.43     24.35    -28.14     20.00
   35.9430     24.34     24.34    -28.22     20.00
   35.9532     24.59     24.33    -27.96     20.00
   35.9634     23.67     24.32    -28.87     20.00
   35.9735     24.27     24.31    -28.26     20.00
   35.9837     23.73     24.30    -28.79     20.00
   35.9939     24.42     24.29    -28.09     20.00
