! WinPLOTR profile fitting results:
!   data file: G301--5-40-0.01-1000ms.xy
!    wave (A):      1.54060     1.54060     0.50000
!
!   2theta(deg.) sig_2th        d(A)   Intensity     sig_int         FWHM    FWHM_sig         ETA     ETA_sig
!------------------------------------------------------------------------------------------------------------------
   18.716724    0.008729     4.73713      154.00        4.92     0.926768    0.021037    0.174486    0.029254
   20.409451    0.036142     4.34790       99.70        7.81     1.843006    0.147950    0.174486    0.029254
   22.534327    0.020349     3.94249      104.91        4.57     1.319968    0.048396    0.174486    0.029254
   28.590944    0.029060     3.11960       35.83        2.07     1.371829    0.071244    0.174486    0.029254
   30.108603    0.000000     2.96572       24.60        1.98     2.625104    0.000000    0.174486    0.029254
   33.387634    0.000000     2.68157       13.24        1.47     2.625104    0.000000    0.174486    0.029254
   17.305763    0.000000     5.12005       68.73        3.52     2.125104    0.000000    0.174486    0.029254
   20.062656    0.000000     4.42227      802.62       14.02    11.100721    0.210280    0.174486    0.029254
   18.723581    0.008379     4.73541      119.76        3.32     0.857421    0.020522    0.000100    0.000000
   20.511175    0.034517     4.32657       81.80        5.37     1.695330    0.123008    0.000100    0.000000
   22.530792    0.022016     3.94310      109.60        4.84     1.412843    0.049545    0.000100    0.000000
   28.479530    0.000000     3.13155       30.64        1.72     1.262054    0.067601    0.000100    0.000000
   29.941519    0.000000     2.98189       22.08        1.59     1.989348    0.000000    0.000100    0.000000
   33.324978    0.000000     2.68647       10.80        1.11     1.989348    0.000000    0.000100    0.000000
   18.000000    0.000000     4.92411      140.79       10.11     3.477879    0.153292    0.000100    0.000000
   20.141014    0.060467     4.40524      710.37       12.61    11.485027    0.192162    0.000100    0.000000
   18.701006    0.006615     4.74108      151.66        3.36     0.785699    0.034892    0.738708    0.008938
   20.649921    0.034941     4.29781       13.81        2.19     0.545341    0.099019    0.738708    0.008938
   22.554014    0.014208     3.93909      100.68        3.49     1.130297    0.048964    0.738708    0.008938
   28.562111    0.029741     3.12269       62.30        2.63     1.680609    0.083010    0.738708    0.008938
   30.066832    0.000000     2.96975       24.53        2.48     2.547522    0.017494    0.738708    0.008938
   33.387634    0.000000     2.68157       16.05        1.50     2.547522    0.017494    0.738708    0.008938
   19.664806    0.025692     4.51083     1179.06        7.98     8.396183    0.080140    0.738708    0.008938
   18.700970    0.006976     4.74109      151.90        4.68     0.785085    0.024754    0.739679    0.012570
   20.649811    0.036729     4.29783       13.83        3.21     0.544847    0.124617    0.739679    0.012570
   22.553757    0.015137     3.93914      100.57        5.34     1.127788    0.052174    0.739679    0.012570
   28.552090    0.034230     3.12376       61.01        3.81     1.648808    0.103828    0.739679    0.012570
   30.004175    0.000000     2.97581       24.76        3.30     2.410789    0.000000    0.739679    0.012570
   33.345863    0.000000     2.68483       16.22        1.59     2.410789    0.000000    0.739679    0.012570
   19.667868    0.034337     4.51014     1179.95       12.35     8.400978    0.114911    0.739679    0.012570
