! WinPLOTR profile fitting results:
!   data file: G301--5-40-0.01-1000ms.xy
!    wave (A):      1.54060     1.54060     0.50000
!
!   2theta(deg.) sig_2th        d(A)   Intensity     sig_int         FWHM    FWHM_sig         ETA     ETA_sig
!------------------------------------------------------------------------------------------------------------------
   18.716724    0.008729     4.73713      154.00        4.92     0.926768    0.021037    0.174486    0.029254
   20.409451    0.036142     4.34790       99.70        7.81     1.843006    0.147950    0.174486    0.029254
   22.534327    0.020349     3.94249      104.91        4.57     1.319968    0.048396    0.174486    0.029254
   28.590944    0.029060     3.11960       35.83        2.07     1.371829    0.071244    0.174486    0.029254
   30.108603    0.000000     2.96572       24.60        1.98     2.625104    0.000000    0.174486    0.029254
   33.387634    0.000000     2.68157       13.24        1.47     2.625104    0.000000    0.174486    0.029254
   17.305763    0.000000     5.12005       68.73        3.52     2.125104    0.000000    0.174486    0.029254
   20.062656    0.000000     4.42227      802.62       14.02    11.100721    0.210280    0.174486    0.029254
   18.723581    0.008379     4.73541      119.76        3.32     0.857421    0.020522    0.000100    0.000000
   20.511175    0.034517     4.32657       81.80        5.37     1.695330    0.123008    0.000100    0.000000
   22.530792    0.022016     3.94310      109.60        4.84     1.412843    0.049545    0.000100    0.000000
   28.479530    0.000000     3.13155       30.64        1.72     1.262054    0.067601    0.000100    0.000000
   29.941519    0.000000     2.98189       22.08        1.59     1.989348    0.000000    0.000100    0.000000
   33.324978    0.000000     2.68647       10.80        1.11     1.989348    0.000000    0.000100    0.000000
   18.000000    0.000000     4.92411      140.79       10.11     3.477879    0.153292    0.000100    0.000000
   20.141014    0.060467     4.40524      710.37       12.61    11.485027    0.192162    0.000100    0.000000
   18.720530    0.008668     4.73618      142.33        4.68     0.896610    0.021064    0.158240    0.030890
   20.425247    0.034765     4.34457       98.75        8.06     1.828170    0.144073    0.158240    0.030890
   22.536905    0.020896     3.94204      107.88        4.73     1.350995    0.049498    0.158240    0.030890
   28.584204    0.030516     3.12032       36.91        2.47     1.421762    0.076466    0.158240    0.030890
   30.087717    0.000000     2.96773       25.20        2.17     2.674182    0.000000    0.158240    0.030890
   33.283207    0.000000     2.68974       14.58        1.47     2.674182    0.000000    0.158240    0.030890
   17.500000    0.000000     5.06365       88.61        5.72     2.674182    0.000000    0.158240    0.030890
   20.029833    0.047777     4.42944      785.01       15.75    11.109797    0.266844    0.158240    0.030890
   18.725132    0.008872     4.73502      122.51        5.14     0.858280    0.024009    0.000100    0.000000
   20.434435    0.035884     4.34264       95.73        6.96     1.825336    0.136764    0.000100    0.000000
   22.541018    0.022852     3.94134      108.04        4.63     1.412905    0.048493    0.000100    0.000000
   28.912037    0.034632     3.08568       62.60        2.12     2.578582    0.083928    0.000100    0.000000
   33.345863    0.000000     2.68483       19.98        1.21     2.756894    0.000000    0.000100    0.000000
   17.809904    0.086921     4.97623      100.94        5.64     2.756894    0.000000    0.000100    0.000000
   19.895573    0.000000     4.45903      755.64        9.67    11.384175    0.136481    0.000100    0.000000
   18.727962    0.008203     4.73431      147.12        4.05     0.911514    0.139821    0.195097    0.028250
   20.500000    0.000000     4.32890       91.74        7.87     1.763291    0.198491    0.195097    0.028250
   22.544292    0.019010     3.94077      103.98        4.53     1.300984    0.138056    0.195097    0.028250
   28.564898    0.032082     3.12239       37.42        2.51     1.412348    0.156992    0.195097    0.028250
   30.004175    0.000000     2.97581       26.20        2.17     2.550148    0.072146    0.195097    0.028250
   33.178780    0.000000     2.69797       14.95        1.44     2.550148    0.072146    0.195097    0.028250
   17.500000    0.000000     5.06365       79.63        7.45     2.550148    0.072146    0.195097    0.028250
   19.988789    0.048164     4.43844      805.15       17.65    10.828022    0.262279    0.195097    0.028250
