 => TITLE: 
 => Data file name: C:\Users\stefano\Nextcloud2\uni\master-thesis\XRD\data\G307\G307--5-40-0.01-1000ms.xy
 => Instrm        :    1
 => Lambda(1&2)   :   1.54060  1.54060
 => Numb.of.points:      2951
 => Numb.of.peaks :         7
    2Theta     Yobs     Ycalc  Yobs-Ycal    Backg    Bragg     Posr  Intensity   FWHM    Eta
    6.0086     24.06     24.99    -21.70     20.00   18.5592      0.90     123.32  0.8178  0.6145
    6.0187     23.84     25.00    -21.93     20.00   20.4829      0.90       9.57  0.5401  0.6145
    6.0289     24.98     25.00    -20.79     20.00   22.4235      0.90      73.46  1.0470  0.6145
    6.0391     24.17     25.01    -21.61     20.00   28.3881      0.90      63.83  1.9885  0.6145
    6.0492     23.44     25.02    -22.35     20.00   30.0668      0.90      30.07  2.9504  0.6145
    6.0594     24.16     25.03    -21.64     20.00   33.4085      0.90      19.95  2.9504  0.6145
    6.0696     24.27     25.03    -21.53     20.00   19.5334      0.90    1194.49  8.6469  0.5874
    6.0797     24.07     25.04    -21.74     20.00
    6.0899     23.75     25.05    -22.07     20.00
    6.1001     22.95     25.06    -22.88     20.00
    6.1102     24.10     25.06    -21.73     20.00
    6.1204     23.40     25.07    -22.44     20.00
    6.1306     23.47     25.08    -22.38     20.00
    6.1407     24.14     25.09    -21.72     20.00
    6.1509     23.15     25.09    -22.71     20.00
    6.1611     23.56     25.10    -22.31     20.00
    6.1712     23.35     25.11    -22.53     20.00
    6.1814     24.32     25.12    -21.57     20.00
    6.1915     23.98     25.13    -21.92     20.00
    6.2017     23.91     25.13    -21.99     20.00
    6.2119     23.66     25.14    -22.25     20.00
    6.2220     24.14     25.15    -21.78     20.00
    6.2322     23.69     25.16    -22.24     20.00
    6.2424     22.83     25.16    -23.10     20.00
    6.2525     22.77     25.17    -23.17     20.00
    6.2627     24.59     25.18    -21.36     20.00
    6.2729     23.29     25.19    -22.67     20.00
    6.2830     22.91     25.20    -23.06     20.00
    6.2932     23.85     25.20    -22.12     20.00
    6.3034     23.29     25.21    -22.69     20.00
    6.3135     23.91     25.22    -22.08     20.00
    6.3237     23.38     25.23    -22.62     20.00
    6.3338     22.57     25.23    -23.43     20.00
    6.3440     23.22     25.24    -22.79     20.00
    6.3542     23.12     25.25    -22.90     20.00
    6.3643     23.34     25.26    -22.69     20.00
    6.3745     22.91     25.27    -23.13     20.00
    6.3847     23.21     25.28    -22.84     20.00
    6.3948     23.62     25.28    -22.43     20.00
    6.4050     22.73     25.29    -23.33     20.00
    6.4152     23.36     25.30    -22.71     20.00
    6.4253     23.81     25.31    -22.27     20.00
    6.4355     23.11     25.32    -22.98     20.00
    6.4457     23.01     25.32    -23.08     20.00
    6.4558     23.82     25.33    -22.28     20.00
    6.4660     23.65     25.34    -22.46     20.00
    6.4762     23.46     25.35    -22.66     20.00
    6.4863     23.95     25.36    -22.18     20.00
    6.4965     23.23     25.37    -22.91     20.00
    6.5066     23.34     25.37    -22.80     20.00
    6.5168     23.77     25.38    -22.38     20.00
    6.5270     22.82     25.39    -23.34     20.00
    6.5371     23.98     25.40    -22.19     20.00
    6.5473     23.84     25.41    -22.34     20.00
    6.5575     23.08     25.42    -23.11     20.00
    6.5676     23.36     25.42    -22.83     20.00
    6.5778     23.56     25.43    -22.64     20.00
    6.5880     22.88     25.44    -23.33     20.00
    6.5981     22.91     25.45    -23.31     20.00
    6.6083     23.43     25.46    -22.80     20.00
    6.6185     24.28     25.47    -21.96     20.00
    6.6286     24.14     25.48    -22.11     20.00
    6.6388     23.79     25.48    -22.46     20.00
    6.6489     22.89     25.49    -23.37     20.00
    6.6591     23.15     25.50    -23.12     20.00
    6.6693     23.58     25.51    -22.70     20.00
    6.6794     23.94     25.52    -22.35     20.00
    6.6896     23.20     25.53    -23.10     20.00
    6.6998     23.52     25.54    -22.79     20.00
    6.7099     23.79     25.55    -22.53     20.00
    6.7201     23.58     25.56    -22.75     20.00
    6.7303     23.76     25.56    -22.57     20.00
    6.7404     23.66     25.57    -22.68     20.00
    6.7506     23.52     25.58    -22.83     20.00
    6.7608     23.51     25.59    -22.85     20.00
    6.7709     24.15     25.60    -22.22     20.00
    6.7811     23.87     25.61    -22.51     20.00
    6.7913     23.32     25.62    -23.07     20.00
    6.8014     24.26     25.63    -22.14     20.00
    6.8116     24.26     25.64    -22.15     20.00
    6.8217     23.29     25.65    -23.13     20.00
    6.8319     23.65     25.65    -22.77     20.00
    6.8421     23.65     25.66    -22.78     20.00
    6.8522     23.88     25.67    -22.56     20.00
    6.8624     24.22     25.68    -22.23     20.00
    6.8726     25.07     25.69    -21.39     20.00
    6.8827     23.89     25.70    -22.58     20.00
    6.8929     23.68     25.71    -22.80     20.00
    6.9031     23.55     25.72    -22.94     20.00
    6.9132     24.71     25.73    -21.79     20.00
    6.9234     23.87     25.74    -22.64     20.00
    6.9336     23.92     25.75    -22.60     20.00
    6.9437     24.67     25.76    -21.86     20.00
    6.9539     23.09     25.77    -23.45     20.00
    6.9640     24.85     25.78    -21.70     20.00
    6.9742     24.31     25.79    -22.25     20.00
    6.9844     23.59     25.80    -22.98     20.00
    6.9945     23.85     25.81    -22.73     20.00
    7.0047     24.54     25.82    -22.05     20.00
    7.0149     23.62     25.83    -22.98     20.00
    7.0250     23.75     25.83    -22.85     20.00
    7.0352     23.95     25.84    -22.66     20.00
    7.0454     24.15     25.85    -22.47     20.00
    7.0555     24.39     25.86    -22.24     20.00
    7.0657     23.85     25.87    -22.79     20.00
    7.0759     24.30     25.88    -22.35     20.00
    7.0860     23.91     25.89    -22.75     20.00
    7.0962     23.71     25.90    -22.96     20.00
    7.1064     24.75     25.91    -21.93     20.00
    7.1165     24.46     25.92    -22.23     20.00
    7.1267     23.88     25.93    -22.82     20.00
    7.1368     25.13     25.94    -21.58     20.00
    7.1470     24.25     25.95    -22.47     20.00
    7.1572     25.01     25.96    -21.72     20.00
    7.1673     24.60     25.97    -22.14     20.00
    7.1775     24.25     25.98    -22.50     20.00
    7.1877     24.46     25.99    -22.30     20.00
    7.1978     24.21     26.00    -22.56     20.00
    7.2080     25.01     26.02    -21.78     20.00
    7.2182     24.48     26.03    -22.32     20.00
    7.2283     24.31     26.04    -22.50     20.00
    7.2385     24.73     26.05    -22.09     20.00
    7.2487     25.23     26.06    -21.60     20.00
    7.2588     25.02     26.07    -21.82     20.00
    7.2690     23.92     26.08    -22.93     20.00
    7.2791     24.34     26.09    -22.52     20.00
    7.2893     25.06     26.10    -21.81     20.00
    7.2995     24.96     26.11    -21.92     20.00
    7.3096     25.01     26.12    -21.88     20.00
    7.3198     24.88     26.13    -22.02     20.00
    7.3300     25.08     26.14    -21.83     20.00
    7.3401     24.37     26.15    -22.55     20.00
    7.3503     25.32     26.16    -21.61     20.00
    7.3605     25.22     26.17    -21.72     20.00
    7.3706     24.52     26.18    -22.43     20.00
    7.3808     25.30     26.20    -21.67     20.00
    7.3910     24.76     26.21    -22.22     20.00
    7.4011     24.79     26.22    -22.20     20.00
    7.4113     25.68     26.23    -21.32     20.00
    7.4215     25.55     26.24    -21.46     20.00
    7.4316     25.49     26.25    -21.53     20.00
    7.4418     25.11     26.26    -21.92     20.00
    7.4519     24.95     26.27    -22.09     20.00
    7.4621     25.21     26.28    -21.84     20.00
    7.4723     25.42     26.30    -21.65     20.00
    7.4824     24.87     26.31    -22.21     20.00
    7.4926     25.28     26.32    -21.81     20.00
    7.5028     25.74     26.33    -21.36     20.00
    7.5129     25.20     26.34    -21.91     20.00
    7.5231     24.66     26.35    -22.46     20.00
    7.5333     24.97     26.36    -22.16     20.00
    7.5434     24.60     26.38    -22.55     20.00
    7.5536     25.00     26.39    -22.16     20.00
    7.5638     26.29     26.40    -20.88     20.00
    7.5739     25.12     26.41    -22.06     20.00
    7.5841     25.28     26.42    -21.91     20.00
    7.5942     26.01     26.43    -21.19     20.00
    7.6044     25.51     26.44    -21.70     20.00
    7.6146     25.77     26.46    -21.46     20.00
    7.6247     25.30     26.47    -21.94     20.00
    7.6349     25.32     26.48    -21.93     20.00
    7.6451     26.30     26.49    -20.96     20.00
    7.6552     26.04     26.50    -21.23     20.00
    7.6654     25.95     26.52    -21.34     20.00
    7.6756     25.77     26.53    -21.53     20.00
    7.6857     25.63     26.54    -21.68     20.00
    7.6959     26.20     26.55    -21.12     20.00
    7.7061     26.60     26.56    -20.73     20.00
    7.7162     25.72     26.58    -21.63     20.00
    7.7264     24.84     26.59    -22.52     20.00
    7.7365     25.35     26.60    -22.02     20.00
    7.7467     25.71     26.61    -21.67     20.00
    7.7569     25.80     26.63    -21.60     20.00
    7.7670     25.41     26.64    -22.00     20.00
    7.7772     25.51     26.65    -21.91     20.00
    7.7874     25.59     26.66    -21.84     20.00
    7.7975     25.70     26.68    -21.75     20.00
    7.8077     26.24     26.69    -21.22     20.00
    7.8179     25.89     26.70    -21.58     20.00
    7.8280     26.37     26.71    -21.11     20.00
    7.8382     25.85     26.73    -21.65     20.00
    7.8484     24.65     26.74    -22.86     20.00
    7.8585     26.13     26.75    -21.39     20.00
    7.8687     26.73     26.76    -20.80     20.00
    7.8789     25.62     26.78    -21.93     20.00
    7.8890     25.33     26.79    -22.23     20.00
    7.8992     27.06     26.80    -20.51     20.00
    7.9093     25.61     26.82    -21.98     20.00
    7.9195     26.77     26.83    -20.83     20.00
    7.9297     26.35     26.84    -21.26     20.00
    7.9398     25.68     26.86    -21.95     20.00
    7.9500     26.93     26.87    -20.71     20.00
    7.9602     26.62     26.88    -21.03     20.00
    7.9703     27.41     26.90    -20.26     20.00
    7.9805     26.81     26.91    -20.87     20.00
    7.9907     26.51     26.92    -21.18     20.00
    8.0008     26.39     26.94    -21.32     20.00
    8.0110     26.56     26.95    -21.16     20.00
    8.0212     27.21     26.96    -20.52     20.00
    8.0313     26.91     26.98    -20.84     20.00
    8.0415     27.37     26.99    -20.39     20.00
    8.0516     26.39     27.00    -21.38     20.00
    8.0618     26.13     27.02    -21.66     20.00
    8.0720     26.55     27.03    -21.25     20.00
    8.0821     26.59     27.04    -21.22     20.00
    8.0923     26.24     27.06    -21.59     20.00
    8.1025     27.00     27.07    -20.84     20.00
    8.1126     27.30     27.09    -20.56     20.00
    8.1228     26.94     27.10    -20.93     20.00
    8.1330     27.64     27.11    -20.25     20.00
    8.1431     27.38     27.13    -20.52     20.00
    8.1533     26.71     27.14    -21.20     20.00
    8.1635     26.91     27.16    -21.02     20.00
    8.1736     27.51     27.17    -20.43     20.00
    8.1838     27.26     27.19    -20.70     20.00
    8.1940     27.29     27.20    -20.68     20.00
    8.2041     27.20     27.22    -20.79     20.00
    8.2143     26.71     27.23    -21.29     20.00
    8.2244     28.02     27.24    -19.99     20.00
    8.2346     27.74     27.26    -20.29     20.00
    8.2448     27.01     27.27    -21.03     20.00
    8.2549     27.37     27.29    -20.69     20.00
    8.2651     27.83     27.30    -20.24     20.00
    8.2753     27.55     27.32    -20.54     20.00
    8.2854     26.65     27.33    -21.45     20.00
    8.2956     27.93     27.35    -20.19     20.00
    8.3058     26.72     27.36    -21.41     20.00
    8.3159     27.94     27.38    -20.21     20.00
    8.3261     26.90     27.39    -21.26     20.00
    8.3363     27.46     27.41    -20.72     20.00
    8.3464     27.30     27.42    -20.89     20.00
    8.3566     28.21     27.44    -20.00     20.00
    8.3667     26.90     27.45    -21.32     20.00
    8.3769     27.90     27.47    -20.34     20.00
    8.3871     28.20     27.49    -20.06     20.00
    8.3972     28.15     27.50    -20.12     20.00
    8.4074     27.84     27.52    -20.45     20.00
    8.4176     27.29     27.53    -21.01     20.00
    8.4277     27.47     27.55    -20.85     20.00
    8.4379     28.14     27.56    -20.19     20.00
    8.4481     27.33     27.58    -21.02     20.00
    8.4582     27.59     27.59    -20.77     20.00
    8.4684     28.27     27.61    -20.11     20.00
    8.4786     27.87     27.63    -20.53     20.00
    8.4887     27.37     27.64    -21.04     20.00
    8.4989     28.07     27.66    -20.36     20.00
    8.5091     28.37     27.68    -20.08     20.00
    8.5192     28.55     27.69    -19.91     20.00
    8.5294     28.65     27.71    -19.83     20.00
    8.5395     27.89     27.72    -20.60     20.00
    8.5497     27.52     27.74    -20.99     20.00
    8.5599     27.56     27.76    -20.97     20.00
    8.5700     28.44     27.77    -20.10     20.00
    8.5802     27.56     27.79    -21.00     20.00
    8.5904     28.56     27.81    -20.02     20.00
    8.6005     27.99     27.82    -20.60     20.00
    8.6107     27.81     27.84    -20.80     20.00
    8.6209     28.80     27.86    -19.83     20.00
    8.6310     28.29     27.87    -20.35     20.00
    8.6412     27.44     27.89    -21.22     20.00
    8.6514     28.85     27.91    -19.83     20.00
    8.6615     27.85     27.93    -20.85     20.00
    8.6717     28.47     27.94    -20.24     20.00
    8.6818     28.60     27.96    -20.13     20.00
    8.6920     28.65     27.98    -20.10     20.00
    8.7022     28.04     28.00    -20.73     20.00
    8.7123     29.10     28.01    -19.68     20.00
    8.7225     28.87     28.03    -19.93     20.00
    8.7327     27.98     28.05    -20.84     20.00
    8.7428     28.61     28.07    -20.23     20.00
    8.7530     29.41     28.08    -19.44     20.00
    8.7632     28.99     28.10    -19.88     20.00
    8.7733     29.30     28.12    -19.59     20.00
    8.7835     28.74     28.14    -20.17     20.00
    8.7937     29.45     28.16    -19.48     20.00
    8.8038     29.03     28.17    -19.91     20.00
    8.8140     29.10     28.19    -19.86     20.00
    8.8242     29.45     28.21    -19.53     20.00
    8.8343     28.98     28.23    -20.02     20.00
    8.8445     28.74     28.25    -20.28     20.00
    8.8546     28.47     28.27    -20.57     20.00
    8.8648     29.57     28.28    -19.48     20.00
    8.8750     29.39     28.30    -19.68     20.00
    8.8851     27.98     28.32    -21.11     20.00
    8.8953     29.46     28.34    -19.65     20.00
    8.9055     28.88     28.36    -20.25     20.00
    8.9156     29.28     28.38    -19.87     20.00
    8.9258     28.96     28.40    -20.21     20.00
    8.9360     29.35     28.42    -19.84     20.00
    8.9461     30.04     28.43    -19.16     20.00
    8.9563     29.51     28.45    -19.71     20.00
    8.9665     28.52     28.47    -20.72     20.00
    8.9766     29.70     28.49    -19.56     20.00
    8.9868     29.57     28.51    -19.71     20.00
    8.9969     29.09     28.53    -20.21     20.00
    9.0071     29.27     28.55    -20.05     20.00
    9.0173     29.37     28.57    -19.97     20.00
    9.0274     29.77     28.59    -19.59     20.00
    9.0376     29.64     28.61    -19.74     20.00
    9.0478     30.02     28.63    -19.38     20.00
    9.0579     29.64     28.65    -19.78     20.00
    9.0681     29.50     28.67    -19.94     20.00
    9.0783     29.34     28.69    -20.12     20.00
    9.0884     30.27     28.71    -19.21     20.00
    9.0986     30.35     28.73    -19.15     20.00
    9.1088     29.90     28.75    -19.62     20.00
    9.1189     29.55     28.77    -19.99     20.00
    9.1291     29.02     28.79    -20.54     20.00
    9.1393     29.43     28.81    -20.15     20.00
    9.1494     29.59     28.83    -20.01     20.00
    9.1596     29.07     28.86    -20.56     20.00
    9.1697     29.92     28.88    -19.73     20.00
    9.1799     29.37     28.90    -20.30     20.00
    9.1901     30.14     28.92    -19.55     20.00
    9.2002     29.87     28.94    -19.84     20.00
    9.2104     30.22     28.96    -19.51     20.00
    9.2206     29.70     28.98    -20.05     20.00
    9.2307     30.62     29.00    -19.15     20.00
    9.2409     30.46     29.03    -19.34     20.00
    9.2511     30.13     29.05    -19.69     20.00
    9.2612     29.72     29.07    -20.12     20.00
    9.2714     30.71     29.09    -19.15     20.00
    9.2816     30.29     29.11    -19.59     20.00
    9.2917     30.07     29.13    -19.83     20.00
    9.3019     30.34     29.16    -19.59     20.00
    9.3120     30.82     29.18    -19.13     20.00
    9.3222     31.30     29.20    -18.67     20.00
    9.3324     30.84     29.22    -19.15     20.00
    9.3425     30.04     29.25    -19.98     20.00
    9.3527     30.51     29.27    -19.53     20.00
    9.3629     31.54     29.29    -18.52     20.00
    9.3730     29.74     29.31    -20.34     20.00
    9.3832     31.48     29.34    -18.63     20.00
    9.3934     31.30     29.36    -18.83     20.00
    9.4035     30.55     29.38    -19.60     20.00
    9.4137     31.26     29.40    -18.91     20.00
    9.4239     29.87     29.43    -20.33     20.00
    9.4340     30.59     29.45    -19.63     20.00
    9.4442     31.30     29.47    -18.94     20.00
    9.4544     30.24     29.50    -20.03     20.00
    9.4645     30.60     29.52    -19.69     20.00
    9.4747     32.04     29.55    -18.28     20.00
    9.4848     31.76     29.57    -18.58     20.00
    9.4950     30.43     29.59    -19.93     20.00
    9.5052     30.85     29.62    -19.54     20.00
    9.5153     31.55     29.64    -18.86     20.00
    9.5255     30.09     29.66    -20.34     20.00
    9.5357     30.71     29.69    -19.75     20.00
    9.5458     31.76     29.71    -18.72     20.00
    9.5560     30.71     29.74    -19.80     20.00
    9.5662     31.11     29.76    -19.42     20.00
    9.5763     31.43     29.79    -19.13     20.00
    9.5865     31.01     29.81    -19.57     20.00
    9.5967     30.95     29.84    -19.66     20.00
    9.6068     30.74     29.86    -19.89     20.00
    9.6170     31.88     29.89    -18.78     20.00
    9.6271     30.52     29.91    -20.16     20.00
    9.6373     31.30     29.94    -19.41     20.00
    9.6475     31.13     29.96    -19.60     20.00
    9.6576     31.36     29.99    -19.40     20.00
    9.6678     32.20     30.01    -18.58     20.00
    9.6780     30.99     30.04    -19.82     20.00
    9.6881     31.46     30.06    -19.37     20.00
    9.6983     32.00     30.09    -18.86     20.00
    9.7085     30.95     30.12    -19.94     20.00
    9.7186     31.73     30.14    -19.18     20.00
    9.7288     31.43     30.17    -19.51     20.00
    9.7390     31.76     30.20    -19.21     20.00
    9.7491     31.65     30.22    -19.34     20.00
    9.7593     31.54     30.25    -19.48     20.00
    9.7694     31.10     30.27    -19.94     20.00
    9.7796     31.53     30.30    -19.54     20.00
    9.7898     31.62     30.33    -19.48     20.00
    9.7999     30.55     30.35    -20.57     20.00
    9.8101     31.73     30.38    -19.42     20.00
    9.8203     32.07     30.41    -19.11     20.00
    9.8304     31.15     30.44    -20.06     20.00
    9.8406     32.41     30.46    -18.82     20.00
    9.8508     31.89     30.49    -19.37     20.00
    9.8609     31.76     30.52    -19.53     20.00
    9.8711     31.61     30.55    -19.71     20.00
    9.8813     32.06     30.57    -19.28     20.00
    9.8914     32.20     30.60    -19.17     20.00
    9.9016     32.45     30.63    -18.95     20.00
    9.9118     31.68     30.66    -19.75     20.00
    9.9219     31.96     30.69    -19.50     20.00
    9.9321     30.96     30.72    -20.53     20.00
    9.9422     31.34     30.74    -20.17     20.00
    9.9524     32.23     30.77    -19.31     20.00
    9.9626     31.90     30.80    -19.67     20.00
    9.9727     31.88     30.83    -19.72     20.00
    9.9829     32.18     30.86    -19.45     20.00
    9.9931     32.61     30.89    -19.05     20.00
   10.0032     31.91     30.92    -19.78     20.00
   10.0134     31.69     30.95    -20.03     20.00
   10.0236     32.59     30.98    -19.16     20.00
   10.0337     32.97     31.01    -18.81     20.00
   10.0439     32.52     31.04    -19.29     20.00
   10.0541     32.76     31.07    -19.08     20.00
   10.0642     31.89     31.10    -19.98     20.00
   10.0744     31.88     31.13    -20.02     20.00
   10.0845     32.81     31.16    -19.12     20.00
   10.0947     32.09     31.19    -19.87     20.00
   10.1049     32.95     31.22    -19.04     20.00
   10.1150     32.72     31.25    -19.30     20.00
   10.1252     32.71     31.28    -19.34     20.00
   10.1354     32.96     31.31    -19.12     20.00
   10.1455     32.91     31.34    -19.20     20.00
   10.1557     32.33     31.37    -19.81     20.00
   10.1659     32.89     31.40    -19.28     20.00
   10.1760     32.77     31.43    -19.43     20.00
   10.1862     32.65     31.47    -19.59     20.00
   10.1964     31.88     31.50    -20.39     20.00
   10.2065     32.67     31.53    -19.63     20.00
   10.2167     32.20     31.56    -20.13     20.00
   10.2269     33.11     31.59    -19.25     20.00
   10.2370     33.74     31.63    -18.66     20.00
   10.2472     32.35     31.66    -20.08     20.00
   10.2573     32.91     31.69    -19.55     20.00
   10.2675     32.95     31.72    -19.54     20.00
   10.2777     32.51     31.76    -20.02     20.00
   10.2878     33.38     31.79    -19.18     20.00
   10.2980     33.37     31.82    -19.22     20.00
   10.3082     33.53     31.85    -19.09     20.00
   10.3183     33.20     31.89    -19.46     20.00
   10.3285     33.59     31.92    -19.10     20.00
   10.3387     33.73     31.96    -19.00     20.00
   10.3488     32.97     31.99    -19.79     20.00
   10.3590     33.31     32.02    -19.48     20.00
   10.3692     33.02     32.06    -19.81     20.00
   10.3793     33.40     32.09    -19.46     20.00
   10.3895     34.11     32.12    -18.78     20.00
   10.3996     33.10     32.16    -19.83     20.00
   10.4098     32.91     32.19    -20.05     20.00
   10.4200     33.65     32.23    -19.35     20.00
   10.4301     33.51     32.26    -19.52     20.00
   10.4403     32.46     32.30    -20.61     20.00
   10.4505     34.76     32.33    -18.34     20.00
   10.4606     33.94     32.37    -19.20     20.00
   10.4708     32.49     32.40    -20.68     20.00
   10.4810     33.68     32.44    -19.53     20.00
   10.4911     34.73     32.47    -18.51     20.00
   10.5013     33.08     32.51    -20.20     20.00
   10.5115     33.50     32.55    -19.82     20.00
   10.5216     33.55     32.58    -19.80     20.00
   10.5318     34.04     32.62    -19.35     20.00
   10.5420     33.76     32.66    -19.67     20.00
   10.5521     33.55     32.69    -19.91     20.00
   10.5623     34.30     32.73    -19.20     20.00
   10.5724     33.35     32.77    -20.19     20.00
   10.5826     34.27     32.80    -19.30     20.00
   10.5928     34.06     32.84    -19.55     20.00
   10.6029     33.86     32.88    -19.79     20.00
   10.6131     34.05     32.91    -19.63     20.00
   10.6233     32.95     32.95    -20.77     20.00
   10.6334     34.35     32.99    -19.41     20.00
   10.6436     34.22     33.03    -19.58     20.00
   10.6538     34.43     33.07    -19.41     20.00
   10.6639     34.23     33.10    -19.64     20.00
   10.6741     33.60     33.14    -20.31     20.00
   10.6843     34.53     33.18    -19.42     20.00
   10.6944     34.29     33.22    -19.70     20.00
   10.7046     34.45     33.26    -19.58     20.00
   10.7147     35.38     33.30    -18.69     20.00
   10.7249     34.51     33.34    -19.60     20.00
   10.7351     34.04     33.38    -20.11     20.00
   10.7452     34.08     33.42    -20.11     20.00
   10.7554     34.82     33.46    -19.41     20.00
   10.7656     34.48     33.50    -19.79     20.00
   10.7757     34.15     33.54    -20.16     20.00
   10.7859     35.45     33.58    -18.90     20.00
   10.7961     35.17     33.62    -19.22     20.00
   10.8062     34.96     33.66    -19.47     20.00
   10.8164     34.64     33.70    -19.83     20.00
   10.8266     34.88     33.74    -19.63     20.00
   10.8367     34.87     33.78    -19.68     20.00
   10.8469     35.12     33.82    -19.47     20.00
   10.8571     35.49     33.86    -19.14     20.00
   10.8672     34.97     33.90    -19.70     20.00
   10.8774     34.51     33.94    -20.20     20.00
   10.8875     34.27     33.99    -20.49     20.00
   10.8977     35.23     34.03    -19.57     20.00
   10.9079     36.39     34.07    -18.45     20.00
   10.9180     35.51     34.11    -19.37     20.00
   10.9282     35.13     34.16    -19.80     20.00
   10.9384     35.33     34.20    -19.64     20.00
   10.9485     35.85     34.24    -19.16     20.00
   10.9587     35.07     34.28    -19.98     20.00
   10.9689     35.15     34.33    -19.95     20.00
   10.9790     34.70     34.37    -20.44     20.00
   10.9892     34.91     34.41    -20.27     20.00
   10.9994     35.14     34.46    -20.09     20.00
   11.0095     35.49     34.50    -19.78     20.00
   11.0197     35.49     34.55    -19.83     20.00
   11.0298     35.79     34.59    -19.57     20.00
   11.0400     35.39     34.63    -20.01     20.00
   11.0502     35.49     34.68    -19.96     20.00
   11.0603     35.14     34.72    -20.35     20.00
   11.0705     35.82     34.77    -19.72     20.00
   11.0807     36.02     34.81    -19.56     20.00
   11.0908     35.47     34.86    -20.16     20.00
   11.1010     36.87     34.90    -18.80     20.00
   11.1112     36.27     34.95    -19.45     20.00
   11.1213     35.91     35.00    -19.86     20.00
   11.1315     35.91     35.04    -19.90     20.00
   11.1417     35.41     35.09    -20.45     20.00
   11.1518     36.87     35.13    -19.03     20.00
   11.1620     35.80     35.18    -20.15     20.00
   11.1722     36.09     35.23    -19.91     20.00
   11.1823     35.41     35.27    -20.63     20.00
   11.1925     35.91     35.32    -20.18     20.00
   11.2026     36.23     35.37    -19.91     20.00
   11.2128     36.45     35.42    -19.74     20.00
   11.2230     37.41     35.46    -18.82     20.00
   11.2331     36.34     35.51    -19.94     20.00
   11.2433     36.52     35.56    -19.81     20.00
   11.2535     36.46     35.61    -19.92     20.00
   11.2636     36.14     35.66    -20.29     20.00
   11.2738     36.45     35.71    -20.03     20.00
   11.2840     37.48     35.75    -19.04     20.00
   11.2941     36.96     35.80    -19.61     20.00
   11.3043     36.79     35.85    -19.83     20.00
   11.3145     36.15     35.90    -20.52     20.00
   11.3246     36.76     35.95    -19.96     20.00
   11.3348     37.55     36.00    -19.22     20.00
   11.3449     37.10     36.05    -19.72     20.00
   11.3551     36.84     36.10    -20.03     20.00
   11.3653     37.20     36.15    -19.72     20.00
   11.3754     36.23     36.20    -20.74     20.00
   11.3856     36.22     36.25    -20.80     20.00
   11.3958     37.18     36.31    -19.90     20.00
   11.4059     36.35     36.36    -20.78     20.00
   11.4161     36.77     36.41    -20.41     20.00
   11.4263     36.88     36.46    -20.35     20.00
   11.4364     36.55     36.51    -20.73     20.00
   11.4466     36.06     36.56    -21.27     20.00
   11.4568     36.83     36.62    -20.56     20.00
   11.4669     36.79     36.67    -20.65     20.00
   11.4771     37.18     36.72    -20.31     20.00
   11.4873     37.57     36.77    -19.97     20.00
   11.4974     37.40     36.83    -20.20     20.00
   11.5076     37.95     36.88    -19.70     20.00
   11.5177     37.13     36.93    -20.57     20.00
   11.5279     38.10     36.99    -19.66     20.00
   11.5381     38.22     37.04    -19.59     20.00
   11.5482     37.39     37.09    -20.47     20.00
   11.5584     37.54     37.15    -20.38     20.00
   11.5686     37.23     37.20    -20.74     20.00
   11.5787     37.11     37.26    -20.92     20.00
   11.5889     37.93     37.31    -20.15     20.00
   11.5991     37.79     37.37    -20.35     20.00
   11.6092     37.06     37.42    -21.13     20.00
   11.6194     38.33     37.48    -19.92     20.00
   11.6296     38.07     37.53    -20.23     20.00
   11.6397     37.02     37.59    -21.34     20.00
   11.6499     37.96     37.65    -20.46     20.00
   11.6600     37.89     37.70    -20.58     20.00
   11.6702     38.69     37.76    -19.84     20.00
   11.6804     37.81     37.82    -20.78     20.00
   11.6905     38.60     37.87    -20.04     20.00
   11.7007     37.82     37.93    -20.88     20.00
   11.7109     38.24     37.99    -20.52     20.00
   11.7210     39.27     38.05    -19.55     20.00
   11.7312     38.14     38.10    -20.73     20.00
   11.7414     38.07     38.16    -20.86     20.00
   11.7515     38.38     38.22    -20.61     20.00
   11.7617     39.23     38.28    -19.82     20.00
   11.7719     37.57     38.34    -21.54     20.00
   11.7820     39.55     38.40    -19.62     20.00
   11.7922     39.37     38.46    -19.86     20.00
   11.8023     38.73     38.51    -20.55     20.00
   11.8125     38.88     38.57    -20.46     20.00
   11.8227     37.98     38.63    -21.42     20.00
   11.8328     39.06     38.69    -20.40     20.00
   11.8430     39.59     38.75    -19.93     20.00
   11.8532     39.04     38.82    -20.55     20.00
   11.8633     39.46     38.88    -20.19     20.00
   11.8735     39.13     38.94    -20.58     20.00
   11.8837     38.73     39.00    -21.04     20.00
   11.8938     39.14     39.06    -20.69     20.00
   11.9040     39.38     39.12    -20.51     20.00
   11.9142     39.90     39.18    -20.05     20.00
   11.9243     39.48     39.25    -20.54     20.00
   11.9345     38.76     39.31    -21.32     20.00
   11.9447     39.16     39.37    -20.98     20.00
   11.9548     40.40     39.43    -19.80     20.00
   11.9650     40.08     39.50    -20.19     20.00
   11.9751     40.02     39.56    -20.31     20.00
   11.9853     40.12     39.62    -20.27     20.00
   11.9955     39.66     39.69    -20.80     20.00
   12.0056     39.67     39.75    -20.85     20.00
   12.0158     38.66     39.82    -21.93     20.00
   12.0260     39.20     39.88    -21.45     20.00
   12.0361     40.04     39.94    -20.67     20.00
   12.0463     39.22     40.01    -21.56     20.00
   12.0565     39.54     40.08    -21.31     20.00
   12.0666     39.21     40.14    -21.70     20.00
   12.0768     40.12     40.21    -20.86     20.00
   12.0870     40.39     40.27    -20.65     20.00
   12.0971     40.22     40.34    -20.89     20.00
   12.1073     40.57     40.40    -20.60     20.00
   12.1174     41.21     40.47    -20.03     20.00
   12.1276     40.68     40.54    -20.63     20.00
   12.1378     40.97     40.61    -20.41     20.00
   12.1479     40.01     40.67    -21.43     20.00
   12.1581     40.10     40.74    -21.41     20.00
   12.1683     40.99     40.81    -20.59     20.00
   12.1784     41.10     40.88    -20.55     20.00
   12.1886     40.92     40.94    -20.79     20.00
   12.1988     41.27     41.01    -20.51     20.00
   12.2089     41.36     41.08    -20.49     20.00
   12.2191     40.29     41.15    -21.63     20.00
   12.2293     42.07     41.22    -19.92     20.00
   12.2394     41.22     41.29    -20.84     20.00
   12.2496     42.28     41.36    -19.85     20.00
   12.2598     41.86     41.43    -20.34     20.00
   12.2699     41.28     41.50    -20.99     20.00
   12.2801     40.49     41.57    -21.85     20.00
   12.2902     41.73     41.64    -20.68     20.00
   12.3004     41.10     41.71    -21.38     20.00
   12.3106     41.43     41.78    -21.12     20.00
   12.3207     41.62     41.86    -21.01     20.00
   12.3309     41.82     41.93    -20.88     20.00
   12.3411     42.02     42.00    -20.75     20.00
   12.3512     42.85     42.07    -19.99     20.00
   12.3614     42.15     42.14    -20.76     20.00
   12.3716     41.89     42.22    -21.10     20.00
   12.3817     42.54     42.29    -20.52     20.00
   12.3919     42.93     42.36    -20.20     20.00
   12.4021     42.46     42.44    -20.75     20.00
   12.4122     41.62     42.51    -21.66     20.00
   12.4224     42.61     42.59    -20.75     20.00
   12.4325     42.45     42.66    -20.98     20.00
   12.4427     42.98     42.73    -20.52     20.00
   12.4529     42.68     42.81    -20.90     20.00
   12.4630     42.87     42.88    -20.78     20.00
   12.4732     41.72     42.96    -22.01     20.00
   12.4834     41.79     43.04    -22.02     20.00
   12.4935     42.16     43.11    -21.72     20.00
   12.5037     42.95     43.19    -21.01     20.00
   12.5139     44.56     43.26    -19.47     20.00
   12.5240     42.88     43.34    -21.23     20.00
   12.5342     42.87     43.42    -21.32     20.00
   12.5444     42.61     43.50    -21.66     20.00
   12.5545     42.79     43.57    -21.55     20.00
   12.5647     42.90     43.65    -21.52     20.00
   12.5749     42.90     43.73    -21.60     20.00
   12.5850     44.15     43.81    -20.43     20.00
   12.5952     44.26     43.89    -20.40     20.00
   12.6053     44.04     43.96    -20.69     20.00
   12.6155     43.68     44.04    -21.13     20.00
   12.6257     43.62     44.12    -21.27     20.00
   12.6358     43.48     44.20    -21.49     20.00
   12.6460     42.03     44.28    -23.02     20.00
   12.6562     44.15     44.36    -20.98     20.00
   12.6663     43.99     44.44    -21.22     20.00
   12.6765     43.01     44.52    -22.28     20.00
   12.6867     43.35     44.60    -22.02     20.00
   12.6968     43.84     44.69    -21.62     20.00
   12.7070     43.48     44.77    -22.06     20.00
   12.7172     44.06     44.85    -21.56     20.00
   12.7273     43.48     44.93    -22.22     20.00
   12.7375     43.85     45.01    -21.93     20.00
   12.7476     43.64     45.10    -22.23     20.00
   12.7578     44.54     45.18    -21.41     20.00
   12.7680     44.80     45.26    -21.23     20.00
   12.7781     44.70     45.35    -21.42     20.00
   12.7883     44.60     45.43    -21.60     20.00
   12.7985     44.49     45.51    -21.79     20.00
   12.8086     45.35     45.60    -21.02     20.00
   12.8188     45.27     45.68    -21.18     20.00
   12.8290     44.82     45.77    -21.72     20.00
   12.8391     44.99     45.85    -21.63     20.00
   12.8493     45.68     45.94    -21.03     20.00
   12.8595     45.50     46.02    -21.29     20.00
   12.8696     44.86     46.11    -22.02     20.00
   12.8798     45.68     46.20    -21.29     20.00
   12.8900     45.35     46.28    -21.70     20.00
   12.9001     45.98     46.37    -21.16     20.00
   12.9103     45.49     46.46    -21.74     20.00
   12.9204     45.81     46.54    -21.50     20.00
   12.9306     45.01     46.63    -22.39     20.00
   12.9408     45.45     46.72    -22.04     20.00
   12.9509     46.01     46.81    -21.57     20.00
   12.9611     46.71     46.89    -20.95     20.00
   12.9713     46.35     46.98    -21.40     20.00
   12.9814     46.55     47.07    -21.29     20.00
   12.9916     47.05     47.16    -20.88     20.00
   13.0018     46.79     47.25    -21.23     20.00
   13.0119     46.93     47.34    -21.18     20.00
   13.0221     46.95     47.43    -21.25     20.00
   13.0323     46.80     47.52    -21.49     20.00
   13.0424     47.51     47.61    -20.87     20.00
   13.0526     46.37     47.70    -22.10     20.00
   13.0627     47.43     47.79    -21.13     20.00
   13.0729     46.26     47.89    -22.40     20.00
   13.0831     47.50     47.98    -21.25     20.00
   13.0932     46.93     48.07    -21.91     20.00
   13.1034     47.48     48.16    -21.45     20.00
   13.1136     48.48     48.26    -20.55     20.00
   13.1237     46.96     48.35    -22.16     20.00
   13.1339     47.36     48.44    -21.85     20.00
   13.1441     47.69     48.54    -21.62     20.00
   13.1542     46.47     48.63    -22.93     20.00
   13.1644     46.80     48.72    -22.69     20.00
   13.1746     46.71     48.82    -22.88     20.00
   13.1847     48.69     48.91    -20.99     20.00
   13.1949     48.58     49.01    -21.20     20.00
   13.2051     49.39     49.10    -20.48     20.00
   13.2152     47.62     49.20    -22.35     20.00
   13.2254     48.07     49.30    -22.00     20.00
   13.2355     49.32     49.39    -20.84     20.00
   13.2457     48.37     49.49    -21.89     20.00
   13.2559     48.96     49.58    -21.39     20.00
   13.2660     48.39     49.68    -22.06     20.00
   13.2762     48.45     49.78    -22.10     20.00
   13.2864     48.03     49.88    -22.62     20.00
   13.2965     49.54     49.97    -21.20     20.00
   13.3067     49.29     50.07    -21.55     20.00
   13.3169     48.61     50.17    -22.33     20.00
   13.3270     48.96     50.27    -22.08     20.00
   13.3372     49.35     50.37    -21.79     20.00
   13.3474     48.88     50.47    -22.36     20.00
   13.3575     49.74     50.57    -21.60     20.00
   13.3677     49.35     50.67    -22.09     20.00
   13.3778     49.15     50.77    -22.39     20.00
   13.3880     49.95     50.87    -21.69     20.00
   13.3982     50.12     50.97    -21.62     20.00
   13.4083     49.18     51.07    -22.66     20.00
   13.4185     49.35     51.17    -22.59     20.00
   13.4287     51.28     51.28    -20.77     20.00
   13.4388     50.10     51.38    -22.05     20.00
   13.4490     50.68     51.48    -21.57     20.00
   13.4592     49.88     51.58    -22.47     20.00
   13.4693     49.67     51.69    -22.79     20.00
   13.4795     50.86     51.79    -21.70     20.00
   13.4897     50.95     51.89    -21.71     20.00
   13.4998     51.25     52.00    -21.52     20.00
   13.5100     49.87     52.10    -23.00     20.00
   13.5201     51.18     52.20    -21.79     20.00
   13.5303     50.74     52.31    -22.34     20.00
   13.5405     50.08     52.42    -23.11     20.00
   13.5506     50.79     52.52    -22.50     20.00
   13.5608     52.12     52.63    -21.28     20.00
   13.5710     50.93     52.73    -22.57     20.00
   13.5811     51.04     52.84    -22.57     20.00
   13.5913     51.13     52.95    -22.59     20.00
   13.6015     50.08     53.05    -23.74     20.00
   13.6116     51.37     53.16    -22.56     20.00
   13.6218     52.96     53.27    -21.08     20.00
   13.6320     52.01     53.38    -22.14     20.00
   13.6421     52.35     53.48    -21.90     20.00
   13.6523     51.57     53.59    -22.79     20.00
   13.6625     52.35     53.70    -22.12     20.00
   13.6726     53.45     53.81    -21.13     20.00
   13.6828     52.34     53.92    -22.35     20.00
   13.6929     51.82     54.03    -22.98     20.00
   13.7031     52.76     54.14    -22.15     20.00
   13.7133     52.86     54.25    -22.16     20.00
   13.7234     53.36     54.36    -21.77     20.00
   13.7336     53.47     54.47    -21.77     20.00
   13.7438     52.51     54.58    -22.84     20.00
   13.7539     54.04     54.69    -21.42     20.00
   13.7641     55.01     54.80    -20.56     20.00
   13.7743     52.81     54.92    -22.88     20.00
   13.7844     52.91     55.03    -22.89     20.00
   13.7946     53.91     55.14    -22.00     20.00
   13.8048     52.82     55.25    -23.20     20.00
   13.8149     53.37     55.37    -22.77     20.00
   13.8251     55.60     55.48    -20.65     20.00
   13.8352     54.43     55.59    -21.93     20.00
   13.8454     54.11     55.71    -22.37     20.00
   13.8556     54.15     55.82    -22.44     20.00
   13.8657     54.56     55.94    -22.15     20.00
   13.8759     54.96     56.05    -21.86     20.00
   13.8861     55.30     56.17    -21.64     20.00
   13.8962     54.35     56.28    -22.70     20.00
   13.9064     54.42     56.40    -22.75     20.00
   13.9166     54.88     56.52    -22.41     20.00
   13.9267     54.55     56.63    -22.85     20.00
   13.9369     55.68     56.75    -21.84     20.00
   13.9471     54.99     56.87    -22.65     20.00
   13.9572     55.30     56.98    -22.45     20.00
   13.9674     55.76     57.10    -22.11     20.00
   13.9776     55.16     57.22    -22.83     20.00
   13.9877     55.89     57.34    -22.22     20.00
   13.9979     54.79     57.46    -23.44     20.00
   14.0080     56.56     57.58    -21.79     20.00
   14.0182     55.21     57.70    -23.26     20.00
   14.0284     55.30     57.82    -23.29     20.00
   14.0385     55.77     57.94    -22.94     20.00
   14.0487     56.87     58.06    -21.96     20.00
   14.0589     55.54     58.18    -23.41     20.00
   14.0690     57.27     58.30    -21.80     20.00
   14.0792     56.93     58.42    -22.26     20.00
   14.0894     56.48     58.54    -22.83     20.00
   14.0995     56.89     58.66    -22.54     20.00
   14.1097     57.61     58.78    -21.94     20.00
   14.1199     55.80     58.91    -23.88     20.00
   14.1300     57.39     59.03    -22.41     20.00
   14.1402     57.79     59.15    -22.13     20.00
   14.1503     57.81     59.27    -22.23     20.00
   14.1605     58.53     59.40    -21.64     20.00
   14.1707     57.84     59.52    -22.45     20.00
   14.1808     57.48     59.65    -22.94     20.00
   14.1910     57.51     59.77    -23.03     20.00
   14.2012     58.20     59.90    -22.47     20.00
   14.2113     57.05     60.02    -23.74     20.00
   14.2215     58.52     60.15    -22.40     20.00
   14.2317     57.93     60.27    -23.11     20.00
   14.2418     59.40     60.40    -21.77     20.00
   14.2520     58.21     60.52    -23.08     20.00
   14.2622     60.29     60.65    -21.13     20.00
   14.2723     58.88     60.78    -22.67     20.00
   14.2825     58.42     60.91    -23.26     20.00
   14.2927     58.00     61.03    -23.80     20.00
   14.3028     59.86     61.16    -22.07     20.00
   14.3130     59.66     61.29    -22.40     20.00
   14.3231     60.27     61.42    -21.92     20.00
   14.3333     59.57     61.55    -22.75     20.00
   14.3435     60.87     61.68    -21.58     20.00
   14.3536     59.90     61.80    -22.67     20.00
   14.3638     59.89     61.93    -22.81     20.00
   14.3740     60.57     62.06    -22.26     20.00
   14.3841     61.12     62.19    -21.84     20.00
   14.3943     60.74     62.33    -22.36     20.00
   14.4045     61.35     62.46    -21.88     20.00
   14.4146     60.13     62.59    -23.23     20.00
   14.4248     61.54     62.72    -21.95     20.00
   14.4350     61.37     62.85    -22.25     20.00
   14.4451     61.70     62.98    -22.05     20.00
   14.4553     61.55     63.12    -22.34     20.00
   14.4654     62.91     63.25    -21.11     20.00
   14.4756     60.56     63.38    -23.59     20.00
   14.4858     60.40     63.51    -23.88     20.00
   14.4959     61.83     63.65    -22.59     20.00
   14.5061     62.15     63.78    -22.40     20.00
   14.5163     61.39     63.92    -23.30     20.00
   14.5264     62.81     64.05    -22.01     20.00
   14.5366     61.97     64.18    -22.98     20.00
   14.5468     62.40     64.32    -22.69     20.00
   14.5569     62.29     64.45    -22.93     20.00
   14.5671     63.19     64.59    -22.17     20.00
   14.5773     62.74     64.73    -22.76     20.00
   14.5874     63.30     64.86    -22.33     20.00
   14.5976     63.09     65.00    -22.68     20.00
   14.6078     63.30     65.14    -22.61     20.00
   14.6179     64.65     65.27    -21.39     20.00
   14.6281     64.29     65.41    -21.89     20.00
   14.6382     63.91     65.55    -22.41     20.00
   14.6484     63.98     65.69    -22.48     20.00
   14.6586     64.52     65.83    -22.08     20.00
   14.6687     63.96     65.96    -22.77     20.00
   14.6789     64.59     66.10    -22.28     20.00
   14.6891     64.16     66.24    -22.85     20.00
   14.6992     64.24     66.38    -22.91     20.00
   14.7094     64.46     66.52    -22.83     20.00
   14.7196     64.41     66.66    -23.02     20.00
   14.7297     64.71     66.80    -22.86     20.00
   14.7399     67.00     66.94    -20.71     20.00
   14.7501     64.90     67.08    -22.95     20.00
   14.7602     65.27     67.22    -22.72     20.00
   14.7704     65.37     67.37    -22.77     20.00
   14.7805     65.75     67.51    -22.53     20.00
   14.7907     66.17     67.65    -22.25     20.00
   14.8009     66.87     67.79    -21.69     20.00
   14.8110     65.87     67.93    -22.83     20.00
   14.8212     66.18     68.08    -22.67     20.00
   14.8314     67.84     68.22    -21.15     20.00
   14.8415     66.95     68.36    -22.18     20.00
   14.8517     67.52     68.51    -21.76     20.00
   14.8619     66.67     68.65    -22.75     20.00
   14.8720     67.65     68.80    -21.92     20.00
   14.8822     66.99     68.94    -22.72     20.00
   14.8924     67.59     69.09    -22.27     20.00
   14.9025     66.76     69.23    -23.24     20.00
   14.9127     66.50     69.38    -23.65     20.00
   14.9229     68.29     69.52    -22.00     20.00
   14.9330     67.97     69.67    -22.47     20.00
   14.9432     68.01     69.82    -22.58     20.00
   14.9533     67.99     69.96    -22.74     20.00
   14.9635     67.60     70.11    -23.28     20.00
   14.9737     69.51     70.26    -21.52     20.00
   14.9838     69.52     70.40    -21.65     20.00
   14.9940     67.96     70.55    -23.36     20.00
   15.0042     68.70     70.70    -22.77     20.00
   15.0143     68.37     70.85    -23.25     20.00
   15.0245     69.52     71.00    -22.25     20.00
   15.0347     69.51     71.15    -22.41     20.00
   15.0448     70.21     71.29    -21.85     20.00
   15.0550     69.10     71.44    -23.11     20.00
   15.0652     70.46     71.59    -21.90     20.00
   15.0753     71.51     71.74    -21.00     20.00
   15.0855     70.64     71.89    -22.02     20.00
   15.0956     71.26     72.04    -21.55     20.00
   15.1058     70.21     72.20    -22.76     20.00
   15.1160     69.77     72.35    -23.35     20.00
   15.1261     70.57     72.50    -22.70     20.00
   15.1363     71.40     72.65    -22.02     20.00
   15.1465     71.58     72.80    -21.99     20.00
   15.1566     70.93     72.95    -22.79     20.00
   15.1668     71.88     73.11    -22.00     20.00
   15.1770     71.98     73.26    -22.05     20.00
   15.1871     71.51     73.41    -22.67     20.00
   15.1973     71.96     73.57    -22.38     20.00
   15.2075     71.23     73.72    -23.26     20.00
   15.2176     71.91     73.87    -22.73     20.00
   15.2278     72.22     74.03    -22.58     20.00
   15.2380     72.18     74.18    -22.77     20.00
   15.2481     72.73     74.34    -22.38     20.00
   15.2583     73.59     74.49    -21.67     20.00
   15.2684     72.97     74.65    -22.45     20.00
   15.2786     73.13     74.80    -22.44     20.00
   15.2888     73.66     74.96    -22.07     20.00
   15.2989     73.41     75.11    -22.47     20.00
   15.3091     74.17     75.27    -21.87     20.00
   15.3193     74.01     75.43    -22.19     20.00
   15.3294     73.88     75.58    -22.47     20.00
   15.3396     74.55     75.74    -21.96     20.00
   15.3498     73.74     75.90    -22.93     20.00
   15.3599     73.82     76.06    -23.01     20.00
   15.3701     76.40     76.21    -20.58     20.00
   15.3803     75.07     76.37    -22.07     20.00
   15.3904     77.15     76.53    -20.15     20.00
   15.4006     76.26     76.69    -21.20     20.00
   15.4107     75.71     76.85    -21.91     20.00
   15.4209     75.57     77.01    -22.21     20.00
   15.4311     76.93     77.17    -21.01     20.00
   15.4412     77.00     77.33    -21.10     20.00
   15.4514     76.81     77.49    -21.45     20.00
   15.4616     75.91     77.65    -22.51     20.00
   15.4717     77.32     77.81    -21.26     20.00
   15.4819     77.25     77.97    -21.49     20.00
   15.4921     77.02     78.13    -21.88     20.00
   15.5022     76.02     78.29    -23.04     20.00
   15.5124     77.62     78.45    -21.60     20.00
   15.5226     77.86     78.61    -21.52     20.00
   15.5327     77.96     78.78    -21.59     20.00
   15.5429     79.26     78.94    -20.45     20.00
   15.5530     77.28     79.10    -22.59     20.00
   15.5632     78.88     79.26    -21.15     20.00
   15.5734     78.37     79.43    -21.83     20.00
   15.5835     78.32     79.59    -22.04     20.00
   15.5937     80.46     79.75    -20.06     20.00
   15.6039     79.52     79.92    -21.17     20.00
   15.6140     79.02     80.08    -21.83     20.00
   15.6242     80.26     80.25    -20.76     20.00
   15.6344     78.65     80.41    -22.53     20.00
   15.6445     80.23     80.57    -21.11     20.00
   15.6547     81.08     80.74    -20.43     20.00
   15.6649     78.77     80.91    -22.91     20.00
   15.6750     79.57     81.07    -22.27     20.00
   15.6852     80.49     81.24    -21.52     20.00
   15.6954     80.16     81.40    -22.01     20.00
   15.7055     81.58     81.57    -20.76     20.00
   15.7157     81.68     81.74    -20.83     20.00
   15.7258     81.48     81.90    -21.19     20.00
   15.7360     80.27     82.07    -22.57     20.00
   15.7462     80.83     82.24    -22.18     20.00
   15.7563     82.18     82.40    -20.99     20.00
   15.7665     82.36     82.57    -20.98     20.00
   15.7767     84.26     82.74    -19.25     20.00
   15.7868     83.57     82.91    -20.11     20.00
   15.7970     82.66     83.08    -21.19     20.00
   15.8072     83.46     83.25    -20.56     20.00
   15.8173     84.29     83.41    -19.89     20.00
   15.8275     84.34     83.58    -20.01     20.00
   15.8377     82.63     83.75    -21.89     20.00
   15.8478     84.15     83.92    -20.54     20.00
   15.8580     83.32     84.09    -21.54     20.00
   15.8681     84.10     84.26    -20.93     20.00
   15.8783     82.68     84.43    -22.52     20.00
   15.8885     84.54     84.60    -20.83     20.00
   15.8986     84.35     84.77    -21.19     20.00
   15.9088     84.35     84.95    -21.37     20.00
   15.9190     84.86     85.12    -21.03     20.00
   15.9291     85.09     85.29    -20.97     20.00
   15.9393     86.60     85.46    -19.63     20.00
   15.9495     85.06     85.63    -21.34     20.00
   15.9596     85.79     85.80    -20.78     20.00
   15.9698     87.37     85.98    -19.38     20.00
   15.9800     86.10     86.15    -20.82     20.00
   15.9901     87.84     86.32    -19.25     20.00
   16.0003     86.07     86.50    -21.20     20.00
   16.0105     87.71     86.67    -19.73     20.00
   16.0206     87.73     86.84    -19.88     20.00
   16.0308     86.48     87.02    -21.31     20.00
   16.0409     87.71     87.19    -20.25     20.00
   16.0511     88.25     87.37    -19.89     20.00
   16.0613     88.05     87.54    -20.26     20.00
   16.0714     88.16     87.72    -20.33     20.00
   16.0816     87.49     87.89    -21.17     20.00
   16.0918     89.49     88.07    -19.35     20.00
   16.1019     89.26     88.24    -19.75     20.00
   16.1121     89.34     88.42    -19.85     20.00
   16.1223     90.05     88.60    -19.32     20.00
   16.1324     90.49     88.77    -19.05     20.00
   16.1426     88.70     88.95    -21.02     20.00
   16.1528     89.54     89.13    -20.36     20.00
   16.1629     88.07     89.30    -22.00     20.00
   16.1731     89.93     89.48    -20.32     20.00
   16.1832     89.39     89.66    -21.04     20.00
   16.1934     90.83     89.83    -19.77     20.00
   16.2036     91.33     90.01    -19.45     20.00
   16.2137     89.81     90.19    -21.15     20.00
   16.2239     90.30     90.37    -20.84     20.00
   16.2341     89.93     90.55    -21.39     20.00
   16.2442     92.16     90.73    -19.34     20.00
   16.2544     90.65     90.91    -21.03     20.00
   16.2646     92.59     91.09    -19.27     20.00
   16.2747     92.09     91.27    -19.95     20.00
   16.2849     92.32     91.45    -19.90     20.00
   16.2951     93.19     91.63    -19.21     20.00
   16.3052     92.92     91.81    -19.66     20.00
   16.3154     93.93     91.99    -18.83     20.00
   16.3256     93.96     92.17    -18.98     20.00
   16.3357     93.06     92.35    -20.06     20.00
   16.3459     93.85     92.53    -19.45     20.00
   16.3560     94.17     92.71    -19.31     20.00
   16.3662     95.43     92.90    -18.24     20.00
   16.3764     94.74     93.08    -19.11     20.00
   16.3865     96.12     93.26    -17.91     20.00
   16.3967     95.30     93.44    -18.91     20.00
   16.4069     94.63     93.63    -19.77     20.00
   16.4170     96.91     93.81    -17.67     20.00
   16.4272     95.71     94.00    -19.06     20.00
   16.4374     95.84     94.18    -19.11     20.00
   16.4475     97.39     94.36    -17.74     20.00
   16.4577     96.23     94.55    -19.09     20.00
   16.4679     97.62     94.73    -17.88     20.00
   16.4780     98.33     94.92    -17.36     20.00
   16.4882     97.62     95.10    -18.25     20.00
   16.4983     97.71     95.29    -18.35     20.00
   16.5085     97.71     95.48    -18.54     20.00
   16.5187     96.68     95.66    -19.75     20.00
   16.5288     98.42     95.85    -18.20     20.00
   16.5390     99.35     96.04    -17.46     20.00
   16.5492     98.66     96.22    -18.33     20.00
   16.5593     99.11     96.41    -18.07     20.00
   16.5695     98.83     96.60    -18.54     20.00
   16.5797    100.10     96.79    -17.46     20.00
   16.5898     99.45     96.97    -18.29     20.00
   16.6000     97.90     97.16    -20.03     20.00
   16.6102    101.09     97.35    -17.03     20.00
   16.6203    100.79     97.54    -17.52     20.00
   16.6305    100.95     97.73    -17.55     20.00
   16.6407     99.94     97.92    -18.75     20.00
   16.6508    102.16     98.11    -16.72     20.00
   16.6610    101.14     98.30    -17.93     20.00
   16.6711    101.60     98.49    -17.66     20.00
   16.6813    102.24     98.69    -17.22     20.00
   16.6915    103.01     98.88    -16.64     20.00
   16.7016    101.26     99.07    -18.58     20.00
   16.7118    102.13     99.26    -17.90     20.00
   16.7220    101.63     99.46    -18.60     20.00
   16.7321    102.47     99.65    -17.95     20.00
   16.7423    101.74     99.84    -18.87     20.00
   16.7525    104.76    100.04    -16.05     20.00
   16.7626    102.99    100.23    -18.01     20.00
   16.7728    103.52    100.43    -17.68     20.00
   16.7830    106.59    100.62    -14.80     20.00
   16.7931    104.13    100.82    -17.46     20.00
   16.8033    104.65    101.02    -17.14     20.00
   16.8134    105.50    101.21    -16.48     20.00
   16.8236    103.68    101.41    -18.50     20.00
   16.8338    104.98    101.61    -17.40     20.00
   16.8439    105.21    101.81    -17.37     20.00
   16.8541    106.12    102.01    -16.66     20.00
   16.8643    107.41    102.21    -15.57     20.00
   16.8744    104.07    102.40    -19.10     20.00
   16.8846    105.18    102.60    -18.19     20.00
   16.8948    106.09    102.81    -17.49     20.00
   16.9049    106.38    103.01    -17.40     20.00
   16.9151    108.39    103.21    -15.59     20.00
   16.9253    106.71    103.41    -17.47     20.00
   16.9354    108.53    103.61    -15.85     20.00
   16.9456    107.61    103.82    -16.98     20.00
   16.9558    108.39    104.02    -16.40     20.00
   16.9659    108.42    104.23    -16.58     20.00
   16.9761    108.06    104.43    -17.14     20.00
   16.9862    107.96    104.64    -17.45     20.00
   16.9964    108.07    104.85    -17.55     20.00
   17.0066    107.07    105.05    -18.75     20.00
   17.0167    110.42    105.26    -15.61     20.00
   17.0269    108.48    105.47    -17.76     20.00
   17.0371    109.98    105.68    -16.47     20.00
   17.0472    108.77    105.89    -17.89     20.00
   17.0574    110.60    106.10    -16.27     20.00
   17.0676    110.40    106.32    -16.69     20.00
   17.0777    108.73    106.53    -18.57     20.00
   17.0879    111.79    106.74    -15.72     20.00
   17.0981    109.79    106.96    -17.94     20.00
   17.1082    109.21    107.17    -18.73     20.00
   17.1184    112.09    107.39    -16.07     20.00
   17.1285    110.76    107.61    -17.62     20.00
   17.1387    109.61    107.83    -18.99     20.00
   17.1489    112.89    108.05    -15.93     20.00
   17.1590    111.17    108.27    -17.87     20.00
   17.1692    109.76    108.49    -19.50     20.00
   17.1794    113.66    108.72    -15.83     20.00
   17.1895    112.73    108.94    -16.98     20.00
   17.1997    112.59    109.17    -17.35     20.00
   17.2099    114.39    109.40    -15.78     20.00
   17.2200    112.84    109.63    -17.56     20.00
   17.2302    114.98    109.86    -15.65     20.00
   17.2404    114.79    110.09    -16.07     20.00
   17.2505    112.84    110.32    -18.25     20.00
   17.2607    114.29    110.56    -17.04     20.00
   17.2709    114.93    110.80    -16.64     20.00
   17.2810    114.30    111.04    -17.51     20.00
   17.2912    113.64    111.28    -18.41     20.00
   17.3013    114.09    111.52    -18.20     20.00
   17.3115    115.38    111.77    -17.16     20.00
   17.3217    115.96    112.02    -16.83     20.00
   17.3318    116.52    112.27    -16.52     20.00
   17.3420    115.76    112.53    -17.54     20.00
   17.3522    116.87    112.78    -16.68     20.00
   17.3623    117.27    113.04    -16.54     20.00
   17.3725    116.87    113.31    -17.21     20.00
   17.3827    117.44    113.57    -16.90     20.00
   17.3928    118.89    113.84    -15.72     20.00
   17.4030    117.58    114.12    -17.31     20.00
   17.4132    118.07    114.39    -17.09     20.00
   17.4233    118.48    114.67    -16.96     20.00
   17.4335    118.36    114.96    -17.37     20.00
   17.4436    119.66    115.25    -16.36     20.00
   17.4538    119.96    115.54    -16.35     20.00
   17.4640    120.33    115.85    -16.29     20.00
   17.4741    120.27    116.15    -16.65     20.00
   17.4843    119.82    116.46    -17.41     20.00
   17.4945    120.66    116.78    -16.89     20.00
   17.5046    120.80    117.10    -17.07     20.00
   17.5148    122.70    117.43    -15.50     20.00
   17.5250    120.97    117.77    -17.57     20.00
   17.5351    120.52    118.11    -18.36     20.00
   17.5453    121.78    118.46    -17.45     20.00
   17.5555    122.98    118.82    -16.61     20.00
   17.5656    120.41    119.19    -19.55     20.00
   17.5758    124.42    119.57    -15.92     20.00
   17.5859    123.12    119.95    -17.60     20.00
   17.5961    123.51    120.35    -17.61     20.00
   17.6063    126.12    120.76    -15.41     20.00
   17.6164    125.22    121.17    -16.72     20.00
   17.6266    124.48    121.60    -17.89     20.00
   17.6368    126.12    122.05    -16.70     20.00
   17.6469    126.25    122.50    -17.02     20.00
   17.6571    128.01    122.97    -15.73     20.00
   17.6673    127.30    123.45    -16.92     20.00
   17.6774    128.69    123.94    -16.02     20.00
   17.6876    128.41    124.45    -16.81     20.00
   17.6978    128.16    124.98    -17.59     20.00
   17.7079    131.66    125.52    -14.63     20.00
   17.7181    129.55    126.08    -17.30     20.00
   17.7283    132.35    126.66    -15.08     20.00
   17.7384    130.08    127.25    -17.94     20.00
   17.7486    132.08    127.86    -16.55     20.00
   17.7587    131.59    128.49    -17.67     20.00
   17.7689    132.66    129.15    -17.26     20.00
   17.7791    133.42    129.83    -17.18     20.00
   17.7892    133.71    130.52    -17.58     20.00
   17.7994    134.24    131.24    -17.77     20.00
   17.8096    135.97    131.99    -16.79     20.00
   17.8197    135.01    132.75    -18.51     20.00
   17.8299    134.12    133.54    -20.19     20.00
   17.8401    135.37    134.37    -19.77     20.00
   17.8502    138.94    135.20    -17.03     20.00
   17.8604    137.98    136.08    -18.87     20.00
   17.8706    141.71    136.98    -16.04     20.00
   17.8807    139.35    137.90    -19.32     20.00
   17.8909    140.85    138.86    -18.78     20.00
   17.9010    142.14    139.84    -18.47     20.00
   17.9112    143.76    140.86    -17.87     20.00
   17.9214    141.24    141.92    -21.45     20.00
   17.9315    144.12    142.99    -19.64     20.00
   17.9417    145.39    144.10    -19.48     20.00
   17.9519    144.82    145.25    -21.20     20.00
   17.9620    146.29    146.42    -20.90     20.00
   17.9722    148.13    147.63    -20.27     20.00
   17.9824    149.28    148.88    -20.37     20.00
   17.9925    150.52    150.15    -20.40     20.00
   18.0027    151.32    151.46    -20.91     20.00
   18.0129    151.39    152.81    -22.19     20.00
   18.0230    154.82    154.18    -20.13     20.00
   18.0332    156.57    155.60    -19.80     20.00
   18.0434    156.60    157.05    -21.22     20.00
   18.0535    155.24    158.52    -24.05     20.00
   18.0637    158.96    160.04    -21.85     20.00
   18.0738    160.79    161.58    -21.56     20.00
   18.0840    162.17    163.16    -21.76     20.00
   18.0942    163.66    164.78    -21.89     20.00
   18.1043    161.99    166.42    -25.20     20.00
   18.1145    165.79    168.10    -23.08     20.00
   18.1247    167.74    169.81    -22.84     20.00
   18.1348    169.21    171.54    -23.10     20.00
   18.1450    168.68    173.31    -25.40     20.00
   18.1552    173.01    175.11    -22.87     20.00
   18.1653    172.73    176.92    -24.96     20.00
   18.1755    174.10    178.77    -25.44     20.00
   18.1857    177.06    180.64    -24.35     20.00
   18.1958    178.95    182.51    -24.33     20.00
   18.2060    179.89    184.43    -25.31     20.00
   18.2161    182.59    186.34    -24.52     20.00
   18.2263    184.62    188.28    -24.43     20.00
   18.2365    183.35    190.24    -27.66     20.00
   18.2466    189.95    192.19    -23.01     20.00
   18.2568    189.70    194.17    -25.24     20.00
   18.2670    190.56    196.15    -26.36     20.00
   18.2771    195.98    198.11    -22.90     20.00
   18.2873    197.31    200.09    -23.55     20.00
   18.2975    196.99    202.06    -25.84     20.00
   18.3076    201.98    204.00    -22.79     20.00
   18.3178    202.66    205.95    -24.06     20.00
   18.3280    203.01    207.88    -25.64     20.00
   18.3381    206.82    209.77    -23.72     20.00
   18.3483    208.32    211.65    -24.10     20.00
   18.3585    210.56    213.49    -23.70     20.00
   18.3686    213.73    215.29    -22.33     20.00
   18.3788    216.02    217.05    -21.80     20.00
   18.3889    216.41    218.75    -23.11     20.00
   18.3991    219.04    220.42    -22.15     20.00
   18.4093    220.04    222.02    -22.75     20.00
   18.4194    223.05    223.54    -21.26     20.00
   18.4296    225.09    225.01    -20.69     20.00
   18.4398    227.63    226.40    -19.54     20.00
   18.4499    227.56    227.70    -20.91     20.00
   18.4601    230.95    228.92    -18.74     20.00
   18.4703    231.04    230.05    -19.78     20.00
   18.4804    232.00    231.07    -19.84     20.00
   18.4906    234.37    231.99    -18.39     20.00
   18.5008    233.00    232.81    -20.58     20.00
   18.5109    234.73    233.52    -19.56     20.00
   18.5211    235.08    234.12    -19.81     20.00
   18.5312    236.24    234.59    -19.12     20.00
   18.5414    237.71    234.96    -18.02     20.00
   18.5516    238.37    235.20    -17.60     20.00
   18.5617    239.27    235.32    -16.82     20.00
   18.5719    239.22    235.32    -16.87     20.00
   18.5821    238.76    235.20    -17.21     20.00
   18.5922    238.68    234.97    -17.06     20.00
   18.6024    235.35    234.61    -20.03     20.00
   18.6126    236.61    234.14    -18.30     20.00
   18.6227    236.60    233.57    -17.74     20.00
   18.6329    233.09    232.88    -20.56     20.00
   18.6431    236.21    232.08    -16.64     20.00
   18.6532    234.45    231.20    -17.52     20.00
   18.6634    232.23    230.20    -18.74     20.00
   18.6736    232.60    229.12    -17.29     20.00
   18.6837    230.92    227.97    -17.82     20.00
   18.6939    226.65    226.72    -20.84     20.00
   18.7040    227.91    225.42    -18.28     20.00
   18.7142    226.37    224.03    -18.43     20.00
   18.7244    225.95    222.58    -17.40     20.00
   18.7345    222.88    221.09    -18.98     20.00
   18.7447    219.88    219.53    -20.42     20.00
   18.7549    219.52    217.92    -19.17     20.00
   18.7650    221.01    216.29    -16.05     20.00
   18.7752    216.12    214.61    -19.26     20.00
   18.7854    213.52    212.90    -20.15     20.00
   18.7955    212.96    211.18    -18.99     20.00
   18.8057    209.66    209.43    -20.54     20.00
   18.8159    205.87    207.65    -22.55     20.00
   18.8260    204.58    205.88    -22.07     20.00
   18.8362    204.28    204.09    -20.58     20.00
   18.8463    200.95    202.31    -22.13     20.00
   18.8565    196.49    200.51    -24.79     20.00
   18.8667    197.70    198.72    -21.79     20.00
   18.8768    194.65    196.94    -23.06     20.00
   18.8870    191.78    195.16    -24.15     20.00
   18.8972    192.87    193.39    -21.29     20.00
   18.9073    189.98    191.65    -22.44     20.00
   18.9175    189.18    189.91    -21.50     20.00
   18.9277    186.26    188.18    -22.69     20.00
   18.9378    183.18    186.50    -24.09     20.00
   18.9480    183.73    184.82    -21.86     20.00
   18.9582    181.80    183.16    -22.13     20.00
   18.9683    177.02    181.54    -25.29     20.00
   18.9785    178.09    179.94    -22.62     20.00
   18.9887    176.33    178.36    -22.80     20.00
   18.9988    173.74    176.83    -23.86     20.00
   19.0090    174.96    175.31    -21.12     20.00
   19.0191    172.96    173.83    -21.64     20.00
   19.0293    169.90    172.38    -23.25     20.00
   19.0395    169.37    170.95    -22.35     20.00
   19.0496    169.54    169.57    -20.80     20.00
   19.0598    165.16    168.21    -23.82     20.00
   19.0700    166.50    166.89    -21.16     20.00
   19.0801    164.04    165.61    -22.34     20.00
   19.0903    161.07    164.35    -24.05     20.00
   19.1005    162.40    163.13    -21.50     20.00
   19.1106    159.57    161.95    -23.15     20.00
   19.1208    160.05    160.79    -21.51     20.00
   19.1310    158.20    159.67    -22.24     20.00
   19.1411    158.16    158.59    -21.20     20.00
   19.1513    156.44    157.54    -21.87     20.00
   19.1614    155.50    156.52    -21.79     20.00
   19.1716    155.23    155.54    -21.08     20.00
   19.1818    154.52    154.58    -20.83     20.00
   19.1919    153.42    153.66    -21.01     20.00
   19.2021    153.13    152.77    -20.41     20.00
   19.2123    149.96    151.91    -22.72     20.00
   19.2224    153.39    151.08    -18.46     20.00
   19.2326    151.04    150.28    -20.01     20.00
   19.2428    148.26    149.51    -22.02     20.00
   19.2529    146.99    148.77    -22.55     20.00
   19.2631    149.55    148.05    -19.27     20.00
   19.2733    147.79    147.36    -20.34     20.00
   19.2834    147.10    146.71    -20.38     20.00
   19.2936    144.98    146.07    -21.86     20.00
   19.3038    144.21    145.46    -22.02     20.00
   19.3139    143.12    144.87    -22.52     20.00
   19.3241    142.98    144.31    -22.10     20.00
   19.3342    143.37    143.77    -21.17     20.00
   19.3444    143.04    143.25    -20.98     20.00
   19.3546    142.41    142.76    -21.12     20.00
   19.3647    142.13    142.28    -20.92     20.00
   19.3749    142.03    141.83    -20.57     20.00
   19.3851    140.58    141.39    -21.58     20.00
   19.3952    140.33    140.97    -21.41     20.00
   19.4054    139.84    140.57    -21.50     20.00
   19.4156    141.06    140.18    -19.89     20.00
   19.4257    139.38    139.82    -21.21     20.00
   19.4359    139.60    139.47    -20.64     20.00
   19.4461    138.37    139.13    -21.53     20.00
   19.4562    136.99    138.81    -22.59     20.00
   19.4664    138.75    138.50    -20.52     20.00
   19.4765    138.13    138.20    -20.84     20.00
   19.4867    137.60    137.92    -21.09     20.00
   19.4969    136.43    137.65    -21.99     20.00
   19.5070    137.26    137.39    -20.90     20.00
   19.5172    136.08    137.14    -21.83     20.00
   19.5274    136.05    136.90    -21.62     20.00
   19.5375    136.09    136.67    -21.35     20.00
   19.5477    136.81    136.45    -20.41     20.00
   19.5579    136.70    136.24    -20.31     20.00
   19.5680    136.35    136.04    -20.46     20.00
   19.5782    135.81    135.85    -20.81     20.00
   19.5884    135.25    135.66    -21.18     20.00
   19.5985    132.68    135.49    -23.58     20.00
   19.6087    132.59    135.31    -23.49     20.00
   19.6188    132.24    135.15    -23.68     20.00
   19.6290    134.18    134.99    -21.58     20.00
   19.6392    132.68    134.84    -22.93     20.00
   19.6493    133.70    134.69    -21.76     20.00
   19.6595    133.46    134.55    -21.86     20.00
   19.6697    134.82    134.42    -20.37     20.00
   19.6798    133.64    134.29    -21.42     20.00
   19.6900    133.46    134.16    -21.47     20.00
   19.7002    132.22    134.04    -22.59     20.00
   19.7103    134.23    133.93    -20.47     20.00
   19.7205    132.03    133.81    -22.55     20.00
   19.7307    132.31    133.71    -22.17     20.00
   19.7408    133.05    133.60    -21.32     20.00
   19.7510    132.13    133.50    -22.14     20.00
   19.7612    133.33    133.41    -20.85     20.00
   19.7713    132.27    133.32    -21.82     20.00
   19.7815    133.93    133.23    -20.07     20.00
   19.7916    132.53    133.15    -21.39     20.00
   19.8018    132.53    133.07    -21.31     20.00
   19.8120    131.09    132.99    -22.67     20.00
   19.8221    132.05    132.92    -21.64     20.00
   19.8323    133.03    132.85    -20.59     20.00
   19.8425    132.37    132.79    -21.19     20.00
   19.8526    131.40    132.73    -22.10     20.00
   19.8628    133.21    132.68    -20.24     20.00
   19.8730    132.04    132.63    -21.36     20.00
   19.8831    130.86    132.58    -22.49     20.00
   19.8933    134.22    132.54    -19.09     20.00
   19.9035    134.35    132.50    -18.92     20.00
   19.9136    130.79    132.47    -22.45     20.00
   19.9238    134.07    132.45    -19.15     20.00
   19.9339    132.84    132.43    -20.36     20.00
   19.9441    132.43    132.41    -20.75     20.00
   19.9543    132.38    132.41    -20.80     20.00
   19.9644    132.79    132.40    -20.38     20.00
   19.9746    133.07    132.41    -20.11     20.00
   19.9848    131.57    132.42    -21.62     20.00
   19.9949    131.61    132.44    -21.60     20.00
   20.0051    131.98    132.46    -21.25     20.00
   20.0153    131.68    132.50    -21.59     20.00
   20.0254    131.88    132.54    -21.43     20.00
   20.0356    132.79    132.59    -20.57     20.00
   20.0458    133.32    132.65    -20.10     20.00
   20.0559    134.50    132.71    -18.98     20.00
   20.0661    132.98    132.79    -20.58     20.00
   20.0763    134.65    132.87    -18.99     20.00
   20.0864    134.38    132.96    -19.35     20.00
   20.0966    134.09    133.06    -19.74     20.00
   20.1067    134.79    133.17    -19.15     20.00
   20.1169    133.23    133.29    -20.83     20.00
   20.1271    134.48    133.43    -19.72     20.00
   20.1372    135.27    133.56    -19.06     20.00
   20.1474    135.05    133.71    -19.43     20.00
   20.1576    134.46    133.87    -20.18     20.00
   20.1677    136.43    134.04    -18.38     20.00
   20.1779    136.45    134.21    -18.53     20.00
   20.1881    134.22    134.40    -20.95     20.00
   20.1982    137.90    134.59    -17.46     20.00
   20.2084    135.73    134.79    -19.83     20.00
   20.2186    135.43    135.00    -20.34     20.00
   20.2287    136.54    135.22    -19.45     20.00
   20.2389    134.35    135.44    -21.86     20.00
   20.2490    135.68    135.67    -20.76     20.00
   20.2592    138.95    135.90    -17.72     20.00
   20.2694    136.45    136.14    -20.46     20.00
   20.2795    135.60    136.38    -21.55     20.00
   20.2897    137.28    136.62    -20.11     20.00
   20.2999    137.51    136.86    -20.12     20.00
   20.3100    136.01    137.10    -21.86     20.00
   20.3202    138.45    137.34    -19.66     20.00
   20.3304    136.55    137.57    -21.79     20.00
   20.3405    137.53    137.80    -21.04     20.00
   20.3507    137.71    138.02    -21.08     20.00
   20.3609    137.93    138.23    -21.07     20.00
   20.3710    138.64    138.42    -20.55     20.00
   20.3812    137.82    138.61    -21.56     20.00
   20.3914    137.29    138.77    -22.25     20.00
   20.4015    137.68    138.92    -22.01     20.00
   20.4117    139.68    139.04    -20.13     20.00
   20.4218    139.38    139.14    -20.53     20.00
   20.4320    135.80    139.22    -24.19     20.00
   20.4422    138.98    139.27    -21.06     20.00
   20.4523    139.54    139.28    -20.51     20.00
   20.4625    138.04    139.27    -22.00     20.00
   20.4727    138.24    139.23    -21.76     20.00
   20.4828    138.45    139.15    -21.47     20.00
   20.4930    138.01    139.04    -21.80     20.00
   20.5032    138.66    138.90    -21.01     20.00
   20.5133    138.37    138.73    -21.13     20.00
   20.5235    137.22    138.53    -22.08     20.00
   20.5337    138.89    138.30    -20.18     20.00
   20.5438    138.03    138.04    -20.78     20.00
   20.5540    135.43    137.75    -23.09     20.00
   20.5641    135.96    137.45    -22.26     20.00
   20.5743    138.88    137.11    -19.00     20.00
   20.5845    136.63    136.76    -20.90     20.00
   20.5946    137.88    136.40    -19.29     20.00
   20.6048    138.03    136.02    -18.76     20.00
   20.6150    134.89    135.62    -21.50     20.00
   20.6251    135.14    135.22    -20.85     20.00
   20.6353    133.57    134.81    -22.01     20.00
   20.6455    134.37    134.39    -20.79     20.00
   20.6556    135.43    133.97    -19.31     20.00
   20.6658    136.80    133.55    -17.52     20.00
   20.6760    134.68    133.12    -19.21     20.00
   20.6861    135.63    132.70    -17.84     20.00
   20.6963    134.48    132.27    -18.56     20.00
   20.7065    131.78    131.85    -20.84     20.00
   20.7166    132.09    131.44    -20.12     20.00
   20.7268    131.62    131.03    -20.18     20.00
   20.7369    131.70    130.62    -19.69     20.00
   20.7471    132.03    130.22    -18.96     20.00
   20.7573    132.49    129.83    -18.11     20.00
   20.7674    128.02    129.45    -22.20     20.00
   20.7776    131.76    129.07    -18.08     20.00
   20.7878    131.35    128.70    -18.12     20.00
   20.7979    129.70    128.35    -19.42     20.00
   20.8081    130.27    128.00    -18.50     20.00
   20.8183    129.30    127.66    -19.13     20.00
   20.8284    128.08    127.33    -20.02     20.00
   20.8386    128.96    127.01    -18.82     20.00
   20.8488    127.25    126.70    -20.22     20.00
   20.8589    125.52    126.40    -21.65     20.00
   20.8691    125.88    126.10    -20.99     20.00
   20.8792    126.98    125.82    -19.61     20.00
   20.8894    126.32    125.55    -20.00     20.00
   20.8996    127.62    125.29    -18.44     20.00
   20.9097    125.63    125.03    -20.17     20.00
   20.9199    124.80    124.79    -20.76     20.00
   20.9301    124.70    124.55    -20.62     20.00
   20.9402    125.00    124.33    -20.10     20.00
   20.9504    122.41    124.11    -22.47     20.00
   20.9606    124.59    123.90    -20.08     20.00
   20.9707    122.78    123.69    -21.69     20.00
   20.9809    121.37    123.50    -22.90     20.00
   20.9911    124.47    123.31    -19.61     20.00
   21.0012    122.67    123.13    -21.23     20.00
   21.0114    121.41    122.96    -22.32     20.00
   21.0216    122.09    122.79    -21.47     20.00
   21.0317    120.88    122.63    -22.52     20.00
   21.0419    120.14    122.48    -23.11     20.00
   21.0520    121.05    122.33    -22.05     20.00
   21.0622    120.15    122.19    -22.81     20.00
   21.0724    119.18    122.06    -23.65     20.00
   21.0825    119.22    121.93    -23.48     20.00
   21.0927    119.12    121.80    -23.45     20.00
   21.1029    118.87    121.68    -23.58     20.00
   21.1130    120.39    121.57    -21.95     20.00
   21.1232    119.43    121.46    -22.80     20.00
   21.1334    116.78    121.35    -25.34     20.00
   21.1435    117.88    121.25    -24.14     20.00
   21.1537    117.85    121.16    -24.08     20.00
   21.1639    116.58    121.06    -25.25     20.00
   21.1740    118.98    120.98    -22.77     20.00
   21.1842    116.96    120.89    -24.70     20.00
   21.1943    115.65    120.82    -25.94     20.00
   21.2045    117.87    120.74    -23.64     20.00
   21.2147    117.41    120.67    -24.03     20.00
   21.2248    118.24    120.61    -23.14     20.00
   21.2350    117.33    120.55    -23.99     20.00
   21.2452    117.13    120.49    -24.13     20.00
   21.2553    116.23    120.44    -24.98     20.00
   21.2655    114.40    120.39    -26.76     20.00
   21.2757    115.43    120.35    -25.69     20.00
   21.2858    114.66    120.31    -26.42     20.00
   21.2960    114.48    120.28    -26.57     20.00
   21.3062    116.41    120.25    -24.61     20.00
   21.3163    115.72    120.23    -25.28     20.00
   21.3265    117.42    120.21    -23.56     20.00
   21.3366    115.71    120.20    -25.26     20.00
   21.3468    113.43    120.19    -27.53     20.00
   21.3570    116.54    120.19    -24.42     20.00
   21.3671    115.41    120.19    -25.55     20.00
   21.3773    114.35    120.20    -26.62     20.00
   21.3875    114.68    120.21    -26.30     20.00
   21.3976    115.36    120.23    -25.64     20.00
   21.4078    114.62    120.26    -26.41     20.00
   21.4180    115.30    120.29    -25.76     20.00
   21.4281    116.21    120.33    -24.89     20.00
   21.4383    115.32    120.37    -25.82     20.00
   21.4485    115.46    120.43    -25.74     20.00
   21.4586    114.91    120.48    -26.34     20.00
   21.4688    113.13    120.55    -28.19     20.00
   21.4790    117.19    120.62    -24.20     20.00
   21.4891    116.12    120.70    -25.35     20.00
   21.4993    115.93    120.79    -25.63     20.00
   21.5094    115.99    120.88    -25.66     20.00
   21.5196    118.65    120.98    -23.10     20.00
   21.5298    116.54    121.09    -25.32     20.00
   21.5399    116.97    121.21    -25.01     20.00
   21.5501    117.09    121.34    -25.02     20.00
   21.5603    116.69    121.47    -25.55     20.00
   21.5704    118.40    121.61    -23.98     20.00
   21.5806    118.79    121.76    -23.74     20.00
   21.5908    117.97    121.92    -24.72     20.00
   21.6009    119.21    122.09    -23.65     20.00
   21.6111    118.79    122.27    -24.25     20.00
   21.6213    118.59    122.46    -24.64     20.00
   21.6314    118.32    122.65    -25.10     20.00
   21.6416    119.80    122.86    -23.83     20.00
   21.6517    120.78    123.07    -23.06     20.00
   21.6619    121.32    123.29    -22.74     20.00
   21.6721    120.91    123.53    -23.39     20.00
   21.6822    121.48    123.77    -23.06     20.00
   21.6924    123.98    124.02    -20.81     20.00
   21.7026    123.26    124.28    -21.79     20.00
   21.7127    122.56    124.55    -22.76     20.00
   21.7229    125.15    124.83    -20.45     20.00
   21.7331    124.05    125.12    -21.84     20.00
   21.7432    124.54    125.42    -21.65     20.00
   21.7534    125.51    125.73    -20.99     20.00
   21.7636    125.20    126.06    -21.63     20.00
   21.7737    125.30    126.38    -21.85     20.00
   21.7839    126.51    126.72    -20.98     20.00
   21.7941    126.46    127.07    -21.38     20.00
   21.8042    127.19    127.43    -21.01     20.00
   21.8144    128.80    127.80    -19.77     20.00
   21.8245    132.81    128.17    -16.13     20.00
   21.8347    129.06    128.56    -20.27     20.00
   21.8449    130.90    128.96    -18.83     20.00
   21.8550    131.79    129.36    -18.34     20.00
   21.8652    131.89    129.77    -18.65     20.00
   21.8754    134.62    130.20    -16.35     20.00
   21.8855    131.69    130.62    -19.70     20.00
   21.8957    133.79    131.06    -18.04     20.00
   21.9059    135.62    131.51    -16.66     20.00
   21.9160    135.88    131.96    -16.85     20.00
   21.9262    134.89    132.42    -18.30     20.00
   21.9364    136.04    132.89    -17.62     20.00
   21.9465    136.41    133.36    -17.72     20.00
   21.9567    137.98    133.84    -16.63     20.00
   21.9668    138.58    134.32    -16.51     20.00
   21.9770    138.96    134.81    -16.62     20.00
   21.9872    137.29    135.31    -18.79     20.00
   21.9973    137.72    135.81    -18.86     20.00
   22.0075    141.72    136.31    -15.36     20.00
   22.0177    141.09    136.82    -16.50     20.00
   22.0278    143.28    137.32    -14.81     20.00
   22.0380    140.47    137.84    -18.14     20.00
   22.0482    141.43    138.35    -17.69     20.00
   22.0583    141.48    138.86    -18.15     20.00
   22.0685    144.12    139.37    -16.02     20.00
   22.0787    141.41    139.88    -19.24     20.00
   22.0888    142.60    140.39    -18.56     20.00
   22.0990    142.62    140.90    -19.05     20.00
   22.1092    143.46    141.40    -18.71     20.00
   22.1193    143.88    141.90    -18.79     20.00
   22.1295    145.57    142.39    -17.59     20.00
   22.1396    144.24    142.87    -19.40     20.00
   22.1498    148.37    143.35    -15.75     20.00
   22.1600    145.66    143.82    -18.93     20.00
   22.1701    147.42    144.28    -17.63     20.00
   22.1803    146.70    144.73    -18.80     20.00
   22.1905    147.62    145.17    -18.32     20.00
   22.2006    148.45    145.59    -17.91     20.00
   22.2108    148.45    146.00    -18.32     20.00
   22.2210    149.13    146.40    -18.04     20.00
   22.2311    147.66    146.77    -19.88     20.00
   22.2413    148.86    147.13    -19.04     20.00
   22.2515    148.43    147.47    -19.81     20.00
   22.2616    146.77    147.78    -21.78     20.00
   22.2718    147.87    148.08    -20.98     20.00
   22.2819    149.46    148.35    -19.66     20.00
   22.2921    147.52    148.60    -21.85     20.00
   22.3023    149.13    148.82    -20.46     20.00
   22.3124    149.09    149.01    -20.69     20.00
   22.3226    149.18    149.18    -20.77     20.00
   22.3328    150.18    149.32    -19.91     20.00
   22.3429    150.82    149.43    -19.38     20.00
   22.3531    149.69    149.51    -20.59     20.00
   22.3633    150.34    149.56    -19.99     20.00
   22.3734    149.02    149.57    -21.32     20.00
   22.3836    147.84    149.55    -22.48     20.00
   22.3938    148.02    149.50    -22.25     20.00
   22.4039    149.98    149.42    -20.21     20.00
   22.4141    145.87    149.30    -24.20     20.00
   22.4243    149.13    149.15    -20.79     20.00
   22.4344    147.10    148.97    -22.64     20.00
   22.4446    146.17    148.74    -23.34     20.00
   22.4547    145.93    148.49    -23.33     20.00
   22.4649    146.95    148.21    -22.03     20.00
   22.4751    145.64    147.88    -23.01     20.00
   22.4852    146.49    147.53    -21.81     20.00
   22.4954    144.46    147.15    -23.46     20.00
   22.5056    145.00    146.73    -22.50     20.00
   22.5157    144.80    146.29    -22.26     20.00
   22.5259    142.50    145.81    -24.08     20.00
   22.5361    142.26    145.31    -23.82     20.00
   22.5462    140.01    144.78    -25.54     20.00
   22.5564    142.14    144.22    -22.85     20.00
   22.5666    140.08    143.63    -24.32     20.00
   22.5767    139.54    143.03    -24.26     20.00
   22.5869    140.02    142.40    -23.15     20.00
   22.5970    138.46    141.75    -24.06     20.00
   22.6072    139.02    141.07    -22.82     20.00
   22.6174    140.15    140.38    -21.00     20.00
   22.6275    136.30    139.67    -24.14     20.00
   22.6377    137.65    138.94    -22.06     20.00
   22.6479    136.30    138.20    -22.67     20.00
   22.6580    137.24    137.45    -20.98     20.00
   22.6682    134.21    136.67    -23.23     20.00
   22.6784    132.59    135.89    -24.07     20.00
   22.6885    133.43    135.10    -22.44     20.00
   22.6987    133.27    134.30    -21.80     20.00
   22.7089    132.21    133.48    -22.04     20.00
   22.7190    129.29    132.67    -24.15     20.00
   22.7292    132.18    131.85    -20.44     20.00
   22.7394    130.77    131.01    -21.01     20.00
   22.7495    127.38    130.18    -23.57     20.00
   22.7597    128.65    129.35    -21.47     20.00
   22.7698    129.48    128.51    -19.80     20.00
   22.7800    125.74    127.67    -22.70     20.00
   22.7902    125.60    126.82    -21.99     20.00
   22.8003    126.17    125.99    -20.59     20.00
   22.8105    124.35    125.14    -21.56     20.00
   22.8207    124.15    124.30    -20.92     20.00
   22.8308    124.05    123.47    -20.19     20.00
   22.8410    122.55    122.63    -20.85     20.00
   22.8512    122.73    121.80    -19.84     20.00
   22.8613    120.66    120.97    -21.08     20.00
   22.8715    119.29    120.15    -21.63     20.00
   22.8817    120.81    119.33    -19.29     20.00
   22.8918    120.04    118.52    -19.25     20.00
   22.9020    117.93    117.71    -20.55     20.00
   22.9121    117.88    116.92    -19.81     20.00
   22.9223    116.79    116.12    -20.10     20.00
   22.9325    116.18    115.33    -19.92     20.00
   22.9426    115.65    114.56    -19.68     20.00
   22.9528    115.93    113.78    -18.62     20.00
   22.9630    112.46    113.02    -21.33     20.00
   22.9731    113.38    112.27    -19.66     20.00
   22.9833    113.14    111.52    -19.15     20.00
   22.9935    111.39    110.78    -20.16     20.00
   23.0036    112.57    110.06    -18.26     20.00
   23.0138    111.30    109.33    -18.80     20.00
   23.0240    110.84    108.62    -18.55     20.00
   23.0341    109.77    107.92    -18.92     20.00
   23.0443    110.02    107.23    -17.98     20.00
   23.0545    108.81    106.55    -18.51     20.00
   23.0646    106.65    105.88    -20.00     20.00
   23.0748    107.21    105.21    -18.77     20.00
   23.0849    106.18    104.57    -19.16     20.00
   23.0951    106.71    103.92    -17.98     20.00
   23.1053    106.96    103.29    -17.10     20.00
   23.1154    105.45    102.67    -17.99     20.00
   23.1256    105.49    102.06    -17.34     20.00
   23.1358    104.21    101.45    -18.01     20.00
   23.1459    103.63    100.86    -18.00     20.00
   23.1561    103.28    100.28    -17.77     20.00
   23.1663    101.99     99.70    -18.48     20.00
   23.1764     99.41     99.15    -20.51     20.00
   23.1866    102.25     98.59    -17.11     20.00
   23.1968    100.66     98.05    -18.16     20.00
   23.2069     98.10     97.52    -20.19     20.00
   23.2171     99.73     96.99    -18.03     20.00
   23.2272     98.28     96.48    -18.97     20.00
   23.2374     98.31     95.97    -18.43     20.00
   23.2476     98.11     95.48    -18.14     20.00
   23.2577     98.68     94.99    -17.08     20.00
   23.2679     95.43     94.51    -19.85     20.00
   23.2781     96.35     94.04    -18.46     20.00
   23.2882     96.62     93.59    -17.74     20.00
   23.2984     94.23     93.13    -19.67     20.00
   23.3086     94.40     92.69    -19.06     20.00
   23.3187     93.71     92.26    -19.32     20.00
   23.3289     94.46     91.83    -18.14     20.00
   23.3391     95.02     91.41    -17.16     20.00
   23.3492     92.61     91.00    -19.16     20.00
   23.3594     92.08     90.60    -19.29     20.00
   23.3695     91.68     90.21    -19.30     20.00
   23.3797     92.48     89.82    -18.11     20.00
   23.3899     89.15     89.44    -21.06     20.00
   23.4000     92.26     89.06    -17.57     20.00
   23.4102     91.42     88.70    -18.05     20.00
   23.4204     88.61     88.34    -20.50     20.00
   23.4305     89.18     87.99    -19.58     20.00
   23.4407     87.63     87.64    -20.78     20.00
   23.4509     87.09     87.30    -20.98     20.00
   23.4610     88.73     86.96    -19.00     20.00
   23.4712     86.93     86.63    -20.47     20.00
   23.4814     87.82     86.31    -19.26     20.00
   23.4915     87.29     86.00    -19.48     20.00
   23.5017     87.07     85.68    -19.38     20.00
   23.5119     85.78     85.38    -20.37     20.00
   23.5220     84.84     85.08    -21.01     20.00
   23.5322     84.89     84.78    -20.66     20.00
   23.5423     84.54     84.49    -20.72     20.00
   23.5525     84.47     84.20    -20.50     20.00
   23.5627     84.18     83.92    -20.51     20.00
   23.5728     83.31     83.65    -21.11     20.00
   23.5830     84.50     83.37    -19.64     20.00
   23.5932     82.19     83.10    -21.68     20.00
   23.6033     82.96     82.84    -20.65     20.00
   23.6135     81.87     82.58    -21.48     20.00
   23.6237     82.73     82.32    -20.36     20.00
   23.6338     82.12     82.07    -20.72     20.00
   23.6440     80.82     81.82    -21.77     20.00
   23.6542     82.09     81.57    -20.25     20.00
   23.6643     81.16     81.33    -20.94     20.00
   23.6745     81.13     81.09    -20.73     20.00
   23.6846     80.17     80.85    -21.45     20.00
   23.6948     80.02     80.62    -21.37     20.00
   23.7050     80.62     80.38    -20.53     20.00
   23.7151     79.87     80.16    -21.06     20.00
   23.7253     79.16     79.93    -21.54     20.00
   23.7355     79.40     79.71    -21.08     20.00
   23.7456     77.12     79.49    -23.14     20.00
   23.7558     77.52     79.27    -22.52     20.00
   23.7660     77.73     79.05    -22.09     20.00
   23.7761     77.04     78.84    -22.57     20.00
   23.7863     78.95     78.63    -20.45     20.00
   23.7965     77.23     78.42    -21.96     20.00
   23.8066     76.80     78.21    -22.18     20.00
   23.8168     77.09     78.01    -21.69     20.00
   23.8270     77.21     77.80    -21.36     20.00
   23.8371     75.91     77.60    -22.46     20.00
   23.8473     76.22     77.40    -21.95     20.00
   23.8574     75.20     77.21    -22.78     20.00
   23.8676     75.19     77.01    -22.59     20.00
   23.8778     74.88     76.82    -22.71     20.00
   23.8879     74.68     76.62    -22.71     20.00
   23.8981     74.80     76.43    -22.40     20.00
   23.9083     73.16     76.24    -23.85     20.00
   23.9184     74.38     76.05    -22.44     20.00
   23.9286     74.45     75.87    -22.19     20.00
   23.9388     73.74     75.68    -22.71     20.00
   23.9489     72.54     75.50    -23.73     20.00
   23.9591     72.09     75.31    -23.99     20.00
   23.9693     73.18     75.13    -22.72     20.00
   23.9794     72.82     74.95    -22.90     20.00
   23.9896     73.23     74.77    -22.31     20.00
   23.9997     71.96     74.59    -23.40     20.00
   24.0099     73.32     74.41    -21.86     20.00
   24.0201     72.95     74.23    -22.05     20.00
   24.0302     72.13     74.06    -22.70     20.00
   24.0404     71.96     73.89    -22.70     20.00
   24.0506     72.09     73.71    -22.39     20.00
   24.0607     70.74     73.54    -23.57     20.00
   24.0709     70.96     73.37    -23.18     20.00
   24.0811     71.18     73.20    -22.79     20.00
   24.0912     69.73     73.03    -24.07     20.00
   24.1014     69.81     72.86    -23.82     20.00
   24.1116     69.62     72.69    -23.84     20.00
   24.1217     68.96     72.52    -24.33     20.00
   24.1319     70.57     72.35    -22.55     20.00
   24.1421     69.17     72.19    -23.79     20.00
   24.1522     71.06     72.02    -21.73     20.00
   24.1624     70.16     71.86    -22.47     20.00
   24.1725     68.87     71.70    -23.60     20.00
   24.1827     68.17     71.53    -24.13     20.00
   24.1929     67.80     71.37    -24.34     20.00
   24.2030     68.75     71.21    -23.23     20.00
   24.2132     68.33     71.05    -23.49     20.00
   24.2234     68.05     70.89    -23.61     20.00
   24.2335     68.62     70.73    -22.88     20.00
   24.2437     68.04     70.57    -23.30     20.00
   24.2539     68.29     70.41    -22.89     20.00
   24.2640     67.47     70.26    -23.56     20.00
   24.2742     66.70     70.10    -24.17     20.00
   24.2844     68.12     69.94    -22.59     20.00
   24.2945     67.00     69.79    -23.56     20.00
   24.3047     67.04     69.63    -23.36     20.00
   24.3148     67.16     69.48    -23.09     20.00
   24.3250     67.63     69.33    -22.47     20.00
   24.3352     66.57     69.17    -23.37     20.00
   24.3453     67.12     69.02    -22.67     20.00
   24.3555     65.81     68.87    -23.83     20.00
   24.3657     65.48     68.72    -24.01     20.00
   24.3758     66.63     68.57    -22.71     20.00
   24.3860     66.00     68.42    -23.19     20.00
   24.3962     64.87     68.27    -24.17     20.00
   24.4063     65.36     68.12    -23.53     20.00
   24.4165     66.13     67.97    -22.61     20.00
   24.4267     65.26     67.82    -23.33     20.00
   24.4368     65.03     67.68    -23.42     20.00
   24.4470     66.47     67.53    -21.83     20.00
   24.4572     65.37     67.38    -22.78     20.00
   24.4673     64.14     67.24    -23.87     20.00
   24.4775     65.55     67.09    -22.31     20.00
   24.4876     63.49     66.95    -24.23     20.00
   24.4978     62.54     66.81    -25.04     20.00
   24.5080     63.71     66.66    -23.72     20.00
   24.5181     64.33     66.52    -22.96     20.00
   24.5283     63.91     66.38    -23.24     20.00
   24.5385     64.32     66.24    -22.69     20.00
   24.5486     64.01     66.09    -22.85     20.00
   24.5588     63.44     65.95    -23.28     20.00
   24.5690     63.71     65.81    -22.87     20.00
   24.5791     62.66     65.67    -23.78     20.00
   24.5893     63.67     65.53    -22.63     20.00
   24.5995     63.59     65.39    -22.57     20.00
   24.6096     63.62     65.26    -22.41     20.00
   24.6198     62.57     65.12    -23.32     20.00
   24.6299     62.89     64.98    -22.86     20.00
   24.6401     64.34     64.84    -21.27     20.00
   24.6503     63.84     64.71    -21.64     20.00
   24.6604     62.72     64.57    -22.62     20.00
   24.6706     63.02     64.44    -22.19     20.00
   24.6808     62.36     64.30    -22.71     20.00
   24.6909     62.83     64.17    -22.11     20.00
   24.7011     63.00     64.03    -21.80     20.00
   24.7113     60.98     63.90    -23.69     20.00
   24.7214     61.20     63.77    -23.34     20.00
   24.7316     61.79     63.63    -22.61     20.00
   24.7418     62.13     63.50    -22.14     20.00
   24.7519     62.05     63.37    -22.09     20.00
   24.7621     63.59     63.24    -20.42     20.00
   24.7723     61.43     63.11    -22.45     20.00
   24.7824     61.16     62.98    -22.59     20.00
   24.7926     61.91     62.85    -21.71     20.00
   24.8027     60.73     62.72    -22.76     20.00
   24.8129     60.41     62.59    -22.95     20.00
   24.8231     62.31     62.46    -20.92     20.00
   24.8332     61.05     62.33    -22.05     20.00
   24.8434     61.75     62.21    -21.23     20.00
   24.8536     62.45     62.08    -20.40     20.00
   24.8637     59.93     61.95    -22.79     20.00
   24.8739     61.75     61.83    -20.85     20.00
   24.8841     60.34     61.70    -22.13     20.00
   24.8942     60.45     61.58    -21.90     20.00
   24.9044     60.77     61.45    -21.45     20.00
   24.9146     60.85     61.33    -21.25     20.00
   24.9247     60.09     61.20    -21.88     20.00
   24.9349     59.95     61.08    -21.90     20.00
   24.9450     60.92     60.96    -20.81     20.00
   24.9552     60.96     60.83    -20.64     20.00
   24.9654     60.70     60.71    -20.78     20.00
   24.9755     59.55     60.59    -21.81     20.00
   24.9857     59.38     60.47    -21.86     20.00
   24.9959     59.83     60.35    -21.29     20.00
   25.0060     58.46     60.23    -22.54     20.00
   25.0162     60.84     60.11    -20.04     20.00
   25.0264     59.09     59.99    -21.67     20.00
   25.0365     58.74     59.87    -21.90     20.00
   25.0467     58.66     59.75    -21.86     20.00
   25.0569     59.90     59.63    -20.50     20.00
   25.0670     59.24     59.51    -21.04     20.00
   25.0772     58.65     59.40    -21.52     20.00
   25.0874     59.66     59.28    -20.39     20.00
   25.0975     58.83     59.16    -21.10     20.00
   25.1077     58.58     59.05    -21.24     20.00
   25.1178     60.12     58.93    -19.58     20.00
   25.1280     59.24     58.82    -20.35     20.00
   25.1382     59.61     58.70    -19.86     20.00
   25.1483     58.82     58.59    -20.54     20.00
   25.1585     59.65     58.47    -19.59     20.00
   25.1687     59.21     58.36    -19.92     20.00
   25.1788     59.13     58.25    -19.89     20.00
   25.1890     58.36     58.14    -20.55     20.00
   25.1992     60.07     58.02    -18.72     20.00
   25.2093     58.49     57.91    -20.19     20.00
   25.2195     57.26     57.80    -21.31     20.00
   25.2297     58.71     57.69    -19.75     20.00
   25.2398     58.04     57.58    -20.31     20.00
   25.2500     57.96     57.47    -20.28     20.00
   25.2601     57.62     57.36    -20.51     20.00
   25.2703     57.32     57.25    -20.70     20.00
   25.2805     57.95     57.15    -19.97     20.00
   25.2906     58.24     57.04    -19.57     20.00
   25.3008     58.03     56.93    -19.67     20.00
   25.3110     57.71     56.82    -19.88     20.00
   25.3211     56.91     56.72    -20.58     20.00
   25.3313     57.45     56.61    -19.93     20.00
   25.3415     56.34     56.50    -20.93     20.00
   25.3516     57.26     56.40    -19.91     20.00
   25.3618     57.09     56.30    -19.98     20.00
   25.3720     56.85     56.19    -20.11     20.00
   25.3821     58.00     56.09    -18.86     20.00
   25.3923     56.16     55.98    -20.59     20.00
   25.4024     56.35     55.88    -20.30     20.00
   25.4126     57.51     55.78    -19.04     20.00
   25.4228     56.47     55.68    -19.98     20.00
   25.4329     57.42     55.58    -18.93     20.00
   25.4431     57.09     55.47    -19.15     20.00
   25.4533     56.73     55.37    -19.41     20.00
   25.4634     56.95     55.27    -19.09     20.00
   25.4736     56.80     55.17    -19.14     20.00
   25.4838     56.30     55.07    -19.54     20.00
   25.4939     57.31     54.98    -18.44     20.00
   25.5041     56.43     54.88    -19.22     20.00
   25.5143     57.54     54.78    -18.01     20.00
   25.5244     55.23     54.68    -20.22     20.00
   25.5346     56.18     54.59    -19.18     20.00
   25.5448     55.88     54.49    -19.38     20.00
   25.5549     56.12     54.40    -19.05     20.00
   25.5651     56.21     54.30    -18.86     20.00
   25.5752     56.21     54.21    -18.77     20.00
   25.5854     55.27     54.11    -19.61     20.00
   25.5956     55.31     54.02    -19.48     20.00
   25.6057     56.17     53.92    -18.52     20.00
   25.6159     54.97     53.83    -19.63     20.00
   25.6261     55.30     53.74    -19.21     20.00
   25.6362     56.37     53.65    -18.05     20.00
   25.6464     55.98     53.56    -18.35     20.00
   25.6566     56.08     53.47    -18.16     20.00
   25.6667     55.49     53.38    -18.66     20.00
   25.6769     55.10     53.29    -18.96     20.00
   25.6871     55.52     53.20    -18.45     20.00
   25.6972     55.49     53.11    -18.39     20.00
   25.7074     55.68     53.02    -18.11     20.00
   25.7175     55.40     52.93    -18.30     20.00
   25.7277     56.10     52.85    -17.52     20.00
   25.7379     54.57     52.76    -18.96     20.00
   25.7480     55.99     52.67    -17.45     20.00
   25.7582     53.99     52.59    -19.37     20.00
   25.7684     54.83     52.50    -18.44     20.00
   25.7785     55.09     52.42    -18.10     20.00
   25.7887     54.06     52.34    -19.05     20.00
   25.7989     54.25     52.25    -18.77     20.00
   25.8090     55.52     52.17    -17.42     20.00
   25.8192     55.26     52.09    -17.60     20.00
   25.8294     54.60     52.01    -18.18     20.00
   25.8395     55.30     51.93    -17.40     20.00
   25.8497     54.55     51.85    -18.07     20.00
   25.8599     53.43     51.77    -19.11     20.00
   25.8700     55.23     51.69    -17.23     20.00
   25.8802     54.19     51.61    -18.19     20.00
   25.8903     54.31     51.53    -17.99     20.00
   25.9005     54.62     51.46    -17.61     20.00
   25.9107     54.85     51.38    -17.30     20.00
   25.9208     53.97     51.30    -18.10     20.00
   25.9310     54.97     51.23    -17.03     20.00
   25.9412     52.95     51.15    -18.97     20.00
   25.9513     52.60     51.08    -19.25     20.00
   25.9615     53.95     51.01    -17.83     20.00
   25.9717     54.79     50.94    -16.92     20.00
   25.9818     53.88     50.86    -17.75     20.00
   25.9920     54.37     50.79    -17.19     20.00
   26.0022     53.37     50.72    -18.12     20.00
   26.0123     53.98     50.65    -17.44     20.00
   26.0225     54.09     50.58    -17.26     20.00
   26.0326     53.15     50.52    -18.14     20.00
   26.0428     53.20     50.45    -18.02     20.00
   26.0530     53.66     50.38    -17.49     20.00
   26.0631     53.35     50.31    -17.73     20.00
   26.0733     54.54     50.25    -16.48     20.00
   26.0835     53.34     50.18    -17.61     20.00
   26.0936     52.88     50.12    -18.01     20.00
   26.1038     52.15     50.06    -18.68     20.00
   26.1140     53.37     49.99    -17.39     20.00
   26.1241     53.09     49.93    -17.61     20.00
   26.1343     52.69     49.87    -17.95     20.00
   26.1445     53.38     49.81    -17.20     20.00
   26.1546     52.90     49.75    -17.62     20.00
   26.1648     51.96     49.69    -18.50     20.00
   26.1750     53.15     49.64    -17.26     20.00
   26.1851     52.77     49.58    -17.58     20.00
   26.1953     52.79     49.52    -17.50     20.00
   26.2054     52.84     49.47    -17.40     20.00
   26.2156     52.21     49.41    -17.97     20.00
   26.2258     53.35     49.36    -16.78     20.00
   26.2359     53.53     49.31    -16.55     20.00
   26.2461     52.23     49.26    -17.80     20.00
   26.2563     53.30     49.20    -16.67     20.00
   26.2664     51.79     49.15    -18.13     20.00
   26.2766     52.89     49.10    -16.98     20.00
   26.2868     53.12     49.06    -16.71     20.00
   26.2969     52.47     49.01    -17.31     20.00
   26.3071     52.46     48.96    -17.27     20.00
   26.3173     52.49     48.92    -17.20     20.00
   26.3274     52.17     48.87    -17.47     20.00
   26.3376     51.70     48.83    -17.90     20.00
   26.3477     51.31     48.79    -18.25     20.00
   26.3579     51.90     48.75    -17.62     20.00
   26.3681     51.32     48.71    -18.16     20.00
   26.3782     51.37     48.67    -18.07     20.00
   26.3884     51.63     48.63    -17.77     20.00
   26.3986     52.12     48.59    -17.24     20.00
   26.4087     52.65     48.55    -16.67     20.00
   26.4189     51.18     48.52    -18.11     20.00
   26.4291     52.35     48.48    -16.90     20.00
   26.4392     52.21     48.45    -17.01     20.00
   26.4494     50.43     48.42    -18.76     20.00
   26.4596     52.46     48.39    -16.70     20.00
   26.4697     50.94     48.36    -18.19     20.00
   26.4799     50.28     48.33    -18.82     20.00
   26.4901     51.33     48.30    -17.74     20.00
   26.5002     51.53     48.27    -17.51     20.00
   26.5104     51.35     48.25    -17.67     20.00
   26.5205     50.56     48.22    -18.43     20.00
   26.5307     50.47     48.20    -18.50     20.00
   26.5409     51.66     48.18    -17.29     20.00
   26.5510     51.13     48.16    -17.80     20.00
   26.5612     51.59     48.14    -17.32     20.00
   26.5714     50.91     48.12    -17.98     20.00
   26.5815     52.04     48.10    -16.83     20.00
   26.5917     51.46     48.09    -17.40     20.00
   26.6019     50.69     48.07    -18.15     20.00
   26.6120     51.02     48.06    -17.81     20.00
   26.6222     49.70     48.05    -19.12     20.00
   26.6324     51.55     48.04    -17.26     20.00
   26.6425     49.88     48.03    -18.92     20.00
   26.6527     49.79     48.02    -19.00     20.00
   26.6628     49.38     48.01    -19.40     20.00
   26.6730     51.36     48.01    -17.42     20.00
   26.6832     50.53     48.00    -18.24     20.00
   26.6933     50.53     48.00    -18.24     20.00
   26.7035     51.23     48.00    -17.54     20.00
   26.7137     50.08     48.00    -18.69     20.00
   26.7238     50.90     48.00    -17.87     20.00
   26.7340     50.41     48.00    -18.36     20.00
   26.7442     50.37     48.00    -18.40     20.00
   26.7543     50.23     48.01    -18.55     20.00
   26.7645     49.98     48.02    -18.81     20.00
   26.7747     50.70     48.02    -18.09     20.00
   26.7848     49.41     48.03    -19.39     20.00
   26.7950     50.94     48.04    -17.87     20.00
   26.8052     49.59     48.06    -19.24     20.00
   26.8153     50.34     48.07    -18.50     20.00
   26.8255     49.41     48.09    -19.45     20.00
   26.8356     50.22     48.10    -18.65     20.00
   26.8458     49.96     48.12    -18.93     20.00
   26.8560     50.43     48.14    -18.48     20.00
   26.8661     49.80     48.16    -19.13     20.00
   26.8763     51.31     48.18    -17.64     20.00
   26.8865     50.63     48.21    -18.35     20.00
   26.8966     50.30     48.23    -18.70     20.00
   26.9068     49.30     48.26    -19.73     20.00
   26.9170     50.59     48.29    -18.47     20.00
   26.9271     49.13     48.32    -19.96     20.00
   26.9373     51.38     48.35    -17.74     20.00
   26.9475     49.84     48.39    -19.32     20.00
   26.9576     49.88     48.42    -19.31     20.00
   26.9678     50.66     48.46    -18.57     20.00
   26.9779     49.84     48.50    -19.43     20.00
   26.9881     48.82     48.54    -20.49     20.00
   26.9983     50.52     48.58    -18.83     20.00
   27.0084     49.74     48.62    -19.65     20.00
   27.0186     50.35     48.67    -19.09     20.00
   27.0288     49.02     48.71    -20.46     20.00
   27.0389     50.01     48.76    -19.52     20.00
   27.0491     49.95     48.81    -19.63     20.00
   27.0593     50.82     48.86    -18.81     20.00
   27.0694     49.89     48.91    -19.79     20.00
   27.0796     49.99     48.97    -19.75     20.00
   27.0898     49.82     49.02    -19.97     20.00
   27.0999     50.22     49.08    -19.63     20.00
   27.1101     49.57     49.14    -20.34     20.00
   27.1202     49.06     49.20    -20.91     20.00
   27.1304     49.24     49.26    -20.79     20.00
   27.1406     49.13     49.32    -20.96     20.00
   27.1507     49.59     49.39    -20.57     20.00
   27.1609     49.44     49.45    -20.78     20.00
   27.1711     50.08     49.52    -20.21     20.00
   27.1812     50.03     49.59    -20.33     20.00
   27.1914     50.20     49.66    -20.23     20.00
   27.2016     49.93     49.74    -20.58     20.00
   27.2117     48.52     49.81    -22.06     20.00
   27.2219     48.74     49.89    -21.92     20.00
   27.2321     49.12     49.97    -21.62     20.00
   27.2422     48.95     50.04    -21.86     20.00
   27.2524     50.07     50.13    -20.83     20.00
   27.2626     49.99     50.21    -20.99     20.00
   27.2727     49.34     50.29    -21.72     20.00
   27.2829     50.12     50.38    -21.03     20.00
   27.2930     49.67     50.46    -21.56     20.00
   27.3032     49.53     50.55    -21.79     20.00
   27.3134     50.87     50.64    -20.54     20.00
   27.3235     48.96     50.73    -22.54     20.00
   27.3337     49.83     50.83    -21.77     20.00
   27.3439     49.76     50.92    -21.93     20.00
   27.3540     49.36     51.01    -22.42     20.00
   27.3642     50.36     51.11    -21.52     20.00
   27.3744     49.94     51.21    -22.04     20.00
   27.3845     48.84     51.31    -23.24     20.00
   27.3947     49.96     51.41    -22.22     20.00
   27.4049     50.32     51.51    -21.96     20.00
   27.4150     49.88     51.62    -22.51     20.00
   27.4252     49.95     51.72    -22.54     20.00
   27.4353     49.95     51.83    -22.65     20.00
   27.4455     49.95     51.94    -22.76     20.00
   27.4557     50.54     52.04    -22.27     20.00
   27.4658     50.21     52.15    -22.71     20.00
   27.4760     49.46     52.26    -23.57     20.00
   27.4862     49.45     52.38    -23.70     20.00
   27.4963     50.52     52.49    -22.74     20.00
   27.5065     51.01     52.61    -22.37     20.00
   27.5167     49.05     52.72    -24.44     20.00
   27.5268     50.32     52.84    -23.29     20.00
   27.5370     50.20     52.96    -23.53     20.00
   27.5472     50.02     53.07    -23.82     20.00
   27.5573     49.71     53.19    -24.25     20.00
   27.5675     51.34     53.31    -22.74     20.00
   27.5777     49.96     53.44    -24.25     20.00
   27.5878     51.67     53.56    -22.66     20.00
   27.5980     51.88     53.68    -22.57     20.00
   27.6081     51.24     53.80    -23.33     20.00
   27.6183     52.37     53.93    -22.33     20.00
   27.6285     50.34     54.05    -24.48     20.00
   27.6386     51.72     54.18    -23.23     20.00
   27.6488     51.52     54.31    -23.56     20.00
   27.6590     51.30     54.43    -23.90     20.00
   27.6691     52.26     54.56    -23.07     20.00
   27.6793     51.42     54.69    -24.04     20.00
   27.6895     52.34     54.82    -23.25     20.00
   27.6996     51.83     54.94    -23.88     20.00
   27.7098     52.62     55.07    -23.22     20.00
   27.7200     52.45     55.20    -23.52     20.00
   27.7301     52.75     55.33    -23.35     20.00
   27.7403     52.37     55.46    -23.86     20.00
   27.7504     52.20     55.59    -24.16     20.00
   27.7606     52.88     55.72    -23.61     20.00
   27.7708     53.60     55.85    -23.02     20.00
   27.7809     53.09     55.98    -23.66     20.00
   27.7911     53.99     56.11    -22.89     20.00
   27.8013     53.35     56.24    -23.66     20.00
   27.8114     53.45     56.37    -23.69     20.00
   27.8216     54.38     56.50    -22.89     20.00
   27.8318     53.24     56.63    -24.16     20.00
   27.8419     54.05     56.75    -23.47     20.00
   27.8521     54.01     56.88    -23.64     20.00
   27.8623     53.52     57.01    -24.26     20.00
   27.8724     54.04     57.13    -23.86     20.00
   27.8826     55.76     57.26    -22.27     20.00
   27.8928     55.26     57.39    -22.90     20.00
   27.9029     56.08     57.51    -22.20     20.00
   27.9131     55.65     57.63    -22.75     20.00
   27.9232     56.37     57.75    -22.15     20.00
   27.9334     56.26     57.87    -22.38     20.00
   27.9436     55.37     57.99    -23.39     20.00
   27.9537     57.51     58.11    -21.37     20.00
   27.9639     56.27     58.23    -22.73     20.00
   27.9741     57.15     58.34    -21.96     20.00
   27.9842     56.94     58.45    -22.28     20.00
   27.9944     58.31     58.57    -21.03     20.00
   28.0046     56.87     58.68    -22.58     20.00
   28.0147     58.45     58.78    -21.10     20.00
   28.0249     57.71     58.89    -21.95     20.00
   28.0351     56.93     59.00    -22.84     20.00
   28.0452     58.61     59.10    -21.26     20.00
   28.0554     57.82     59.20    -22.15     20.00
   28.0655     59.13     59.30    -20.94     20.00
   28.0757     59.41     59.39    -20.75     20.00
   28.0859     59.38     59.49    -20.88     20.00
   28.0960     58.26     59.58    -22.09     20.00
   28.1062     59.12     59.66    -21.31     20.00
   28.1164     58.77     59.75    -21.75     20.00
   28.1265     60.04     59.83    -20.56     20.00
   28.1367     59.40     59.91    -21.28     20.00
   28.1469     60.70     59.99    -20.06     20.00
   28.1570     60.89     60.06    -19.94     20.00
   28.1672     59.30     60.14    -21.61     20.00
   28.1774     60.55     60.20    -20.42     20.00
   28.1875     61.84     60.27    -19.20     20.00
   28.1977     61.43     60.33    -19.67     20.00
   28.2079     61.34     60.39    -19.82     20.00
   28.2180     60.96     60.44    -20.25     20.00
   28.2282     62.22     60.50    -19.05     20.00
   28.2383     63.24     60.54    -18.07     20.00
   28.2485     63.12     60.59    -18.24     20.00
   28.2587     62.99     60.63    -18.41     20.00
   28.2688     63.66     60.67    -17.78     20.00
   28.2790     63.51     60.70    -17.96     20.00
   28.2892     63.54     60.73    -17.96     20.00
   28.2993     64.23     60.76    -17.30     20.00
   28.3095     63.01     60.78    -18.54     20.00
   28.3197     64.63     60.80    -16.94     20.00
   28.3298     63.90     60.81    -17.68     20.00
   28.3400     63.02     60.82    -18.57     20.00
   28.3502     62.96     60.83    -18.64     20.00
   28.3603     63.71     60.83    -17.89     20.00
   28.3705     62.91     60.83    -18.69     20.00
   28.3806     64.04     60.83    -17.56     20.00
   28.3908     62.85     60.82    -18.74     20.00
   28.4010     63.04     60.81    -18.54     20.00
   28.4111     63.67     60.79    -17.89     20.00
   28.4213     62.79     60.77    -18.75     20.00
   28.4315     63.68     60.74    -17.83     20.00
   28.4416     63.97     60.72    -17.52     20.00
   28.4518     63.41     60.68    -18.04     20.00
   28.4620     63.69     60.65    -17.73     20.00
   28.4721     63.32     60.61    -18.06     20.00
   28.4823     62.79     60.56    -18.54     20.00
   28.4925     61.46     60.51    -19.82     20.00
   28.5026     63.52     60.46    -17.71     20.00
   28.5128     63.18     60.41    -18.00     20.00
   28.5230     62.72     60.35    -18.40     20.00
   28.5331     64.21     60.28    -16.84     20.00
   28.5433     63.79     60.22    -17.20     20.00
   28.5534     62.65     60.15    -18.27     20.00
   28.5636     62.71     60.07    -18.13     20.00
   28.5738     64.48     59.99    -16.28     20.00
   28.5839     62.55     59.91    -18.13     20.00
   28.5941     62.30     59.83    -18.30     20.00
   28.6043     62.39     59.74    -18.12     20.00
   28.6144     60.87     59.65    -19.55     20.00
   28.6246     61.44     59.56    -18.89     20.00
   28.6348     62.01     59.46    -18.22     20.00
   28.6449     60.29     59.36    -19.84     20.00
   28.6551     60.42     59.26    -19.61     20.00
   28.6653     61.17     59.16    -18.76     20.00
   28.6754     60.76     59.05    -19.06     20.00
   28.6856     59.85     58.94    -19.86     20.00
   28.6957     60.71     58.82    -18.88     20.00
   28.7059     60.61     58.71    -18.87     20.00
   28.7161     60.53     58.59    -18.83     20.00
   28.7262     59.43     58.47    -19.81     20.00
   28.7364     59.82     58.35    -19.30     20.00
   28.7466     59.77     58.22    -19.22     20.00
   28.7567     59.79     58.10    -19.08     20.00
   28.7669     57.90     57.97    -20.84     20.00
   28.7771     58.18     57.83    -20.42     20.00
   28.7872     58.69     57.70    -19.78     20.00
   28.7974     57.73     57.57    -20.61     20.00
   28.8076     58.71     57.43    -19.49     20.00
   28.8177     58.66     57.29    -19.40     20.00
   28.8279     57.10     57.15    -20.82     20.00
   28.8381     57.96     57.01    -19.82     20.00
   28.8482     56.47     56.87    -21.17     20.00
   28.8584     56.68     56.72    -20.81     20.00
   28.8685     56.61     56.58    -20.74     20.00
   28.8787     57.09     56.43    -20.11     20.00
   28.8889     56.80     56.28    -20.25     20.00
   28.8990     56.65     56.14    -20.26     20.00
   28.9092     55.56     55.99    -21.20     20.00
   28.9194     54.96     55.84    -21.65     20.00
   28.9295     54.66     55.69    -21.80     20.00
   28.9397     54.90     55.53    -21.40     20.00
   28.9499     54.48     55.38    -21.67     20.00
   28.9600     54.65     55.23    -21.35     20.00
   28.9702     54.41     55.07    -21.43     20.00
   28.9804     54.40     54.92    -21.29     20.00
   28.9905     54.73     54.77    -20.81     20.00
   29.0007     54.49     54.61    -20.89     20.00
   29.0108     53.79     54.45    -21.43     20.00
   29.0210     52.95     54.30    -22.12     20.00
   29.0312     52.59     54.14    -22.32     20.00
   29.0413     53.62     53.99    -21.14     20.00
   29.0515     51.04     53.83    -23.56     20.00
   29.0617     52.74     53.67    -21.70     20.00
   29.0718     52.29     53.52    -22.00     20.00
   29.0820     52.74     53.36    -21.39     20.00
   29.0922     53.45     53.20    -20.52     20.00
   29.1023     51.52     53.05    -22.30     20.00
   29.1125     51.20     52.89    -22.46     20.00
   29.1227     52.26     52.74    -21.25     20.00
   29.1328     51.37     52.58    -21.98     20.00
   29.1430     50.78     52.43    -22.42     20.00
   29.1531     50.99     52.27    -22.05     20.00
   29.1633     50.55     52.12    -22.34     20.00
   29.1735     51.10     51.96    -21.63     20.00
   29.1836     49.92     51.81    -22.66     20.00
   29.1938     50.35     51.66    -22.08     20.00
   29.2040     49.98     51.50    -22.29     20.00
   29.2141     49.37     51.35    -22.75     20.00
   29.2243     49.53     51.20    -22.44     20.00
   29.2345     49.68     51.05    -22.14     20.00
   29.2446     50.12     50.90    -21.55     20.00
   29.2548     49.27     50.75    -22.25     20.00
   29.2650     49.15     50.60    -22.22     20.00
   29.2751     47.65     50.45    -23.57     20.00
   29.2853     48.96     50.31    -22.12     20.00
   29.2955     48.72     50.16    -22.21     20.00
   29.3056     49.04     50.01    -21.74     20.00
   29.3158     48.20     49.87    -22.44     20.00
   29.3259     48.60     49.72    -21.89     20.00
   29.3361     47.54     49.58    -22.81     20.00
   29.3463     49.30     49.44    -20.91     20.00
   29.3564     47.60     49.29    -22.46     20.00
   29.3666     48.63     49.15    -21.29     20.00
   29.3768     46.99     49.01    -22.79     20.00
   29.3869     47.60     48.87    -22.04     20.00
   29.3971     47.52     48.73    -21.98     20.00
   29.4073     46.28     48.60    -23.09     20.00
   29.4174     47.66     48.46    -21.57     20.00
   29.4276     46.94     48.32    -22.15     20.00
   29.4378     47.05     48.19    -21.91     20.00
   29.4479     46.66     48.06    -22.17     20.00
   29.4581     46.08     47.92    -22.61     20.00
   29.4682     45.95     47.79    -22.61     20.00
   29.4784     46.37     47.66    -22.06     20.00
   29.4886     46.40     47.53    -21.90     20.00
   29.4987     45.10     47.40    -23.07     20.00
   29.5089     46.47     47.27    -21.57     20.00
   29.5191     45.30     47.14    -22.61     20.00
   29.5292     44.49     47.02    -23.30     20.00
   29.5394     45.46     46.89    -22.20     20.00
   29.5496     46.31     46.77    -21.23     20.00
   29.5597     44.63     46.64    -22.78     20.00
   29.5699     45.54     46.52    -21.75     20.00
   29.5801     45.77     46.40    -21.40     20.00
   29.5902     45.18     46.28    -21.87     20.00
   29.6004     44.80     46.16    -22.13     20.00
   29.6106     46.62     46.04    -20.19     20.00
   29.6207     45.06     45.92    -21.63     20.00
   29.6309     44.04     45.81    -22.54     20.00
   29.6410     44.37     45.69    -22.09     20.00
   29.6512     44.67     45.58    -21.68     20.00
   29.6614     44.86     45.46    -21.37     20.00
   29.6715     45.13     45.35    -20.99     20.00
   29.6817     44.62     45.24    -21.39     20.00
   29.6919     45.80     45.13    -20.10     20.00
   29.7020     43.82     45.02    -21.97     20.00
   29.7122     44.51     44.91    -21.17     20.00
   29.7224     44.33     44.80    -21.24     20.00
   29.7325     44.03     44.69    -21.43     20.00
   29.7427     44.79     44.58    -20.56     20.00
   29.7529     43.06     44.48    -22.19     20.00
   29.7630     44.55     44.37    -20.59     20.00
   29.7732     43.87     44.27    -21.17     20.00
   29.7833     43.62     44.17    -21.32     20.00
   29.7935     43.98     44.06    -20.85     20.00
   29.8037     43.82     43.96    -20.91     20.00
   29.8138     42.63     43.86    -22.00     20.00
   29.8240     44.51     43.76    -20.02     20.00
   29.8342     43.70     43.66    -20.73     20.00
   29.8443     43.24     43.56    -21.09     20.00
   29.8545     44.91     43.47    -19.33     20.00
   29.8647     42.83     43.37    -21.31     20.00
   29.8748     44.00     43.27    -20.04     20.00
   29.8850     43.14     43.18    -20.81     20.00
   29.8952     42.37     43.08    -21.48     20.00
   29.9053     43.44     42.99    -20.32     20.00
   29.9155     44.65     42.89    -19.01     20.00
   29.9257     42.85     42.80    -20.72     20.00
   29.9358     43.43     42.71    -20.05     20.00
   29.9460     42.96     42.62    -20.43     20.00
   29.9561     41.96     42.53    -21.34     20.00
   29.9663     43.32     42.44    -19.89     20.00
   29.9765     43.33     42.35    -19.79     20.00
   29.9866     41.74     42.26    -21.29     20.00
   29.9968     42.26     42.17    -20.68     20.00
   30.0070     42.49     42.08    -20.36     20.00
   30.0171     42.49     42.00    -20.28     20.00
   30.0273     42.20     41.91    -20.48     20.00
   30.0375     42.84     41.83    -19.76     20.00
   30.0476     41.86     41.74    -20.65     20.00
   30.0578     42.94     41.66    -19.49     20.00
   30.0680     42.15     41.57    -20.19     20.00
   30.0781     42.01     41.49    -20.25     20.00
   30.0883     41.84     41.41    -20.34     20.00
   30.0984     41.96     41.32    -20.13     20.00
   30.1086     41.07     41.24    -20.94     20.00
   30.1188     41.32     41.16    -20.61     20.00
   30.1289     41.48     41.08    -20.37     20.00
   30.1391     41.54     41.00    -20.23     20.00
   30.1493     41.70     40.92    -19.99     20.00
   30.1594     41.52     40.84    -20.09     20.00
   30.1696     40.78     40.76    -20.75     20.00
   30.1798     41.37     40.68    -20.08     20.00
   30.1899     41.42     40.60    -19.95     20.00
   30.2001     40.31     40.53    -20.99     20.00
   30.2103     41.52     40.45    -19.70     20.00
   30.2204     40.34     40.37    -20.80     20.00
   30.2306     40.30     40.29    -20.76     20.00
   30.2408     41.18     40.22    -19.81     20.00
   30.2509     39.96     40.14    -20.95     20.00
   30.2611     40.45     40.07    -20.39     20.00
   30.2712     39.96     39.99    -20.80     20.00
   30.2814     41.27     39.92    -19.42     20.00
   30.2916     39.34     39.84    -21.27     20.00
   30.3017     39.76     39.77    -20.78     20.00
   30.3119     40.92     39.70    -19.55     20.00
   30.3221     38.83     39.62    -21.56     20.00
   30.3322     39.62     39.55    -20.70     20.00
   30.3424     39.81     39.48    -20.44     20.00
   30.3526     39.19     39.41    -20.99     20.00
   30.3627     38.77     39.34    -21.34     20.00
   30.3729     39.95     39.26    -20.08     20.00
   30.3831     39.43     39.19    -20.53     20.00
   30.3932     39.46     39.12    -20.43     20.00
   30.4034     38.83     39.05    -20.99     20.00
   30.4135     38.36     38.98    -21.39     20.00
   30.4237     39.30     38.91    -20.38     20.00
   30.4339     39.57     38.84    -20.04     20.00
   30.4440     38.26     38.77    -21.28     20.00
   30.4542     38.59     38.70    -20.88     20.00
   30.4644     38.14     38.64    -21.27     20.00
   30.4745     38.91     38.57    -20.43     20.00
   30.4847     37.96     38.50    -21.31     20.00
   30.4949     38.39     38.43    -20.81     20.00
   30.5050     38.03     38.37    -21.11     20.00
   30.5152     37.75     38.30    -21.32     20.00
   30.5254     38.87     38.23    -20.13     20.00
   30.5355     37.51     38.17    -21.43     20.00
   30.5457     37.01     38.10    -21.86     20.00
   30.5559     37.69     38.03    -21.11     20.00
   30.5660     37.23     37.97    -21.51     20.00
   30.5762     37.02     37.90    -21.65     20.00
   30.5863     37.31     37.84    -21.30     20.00
   30.5965     37.03     37.77    -21.51     20.00
   30.6067     37.75     37.71    -20.73     20.00
   30.6168     37.02     37.64    -21.39     20.00
   30.6270     38.68     37.58    -19.67     20.00
   30.6372     37.07     37.52    -21.22     20.00
   30.6473     37.45     37.45    -20.77     20.00
   30.6575     37.47     37.39    -20.69     20.00
   30.6677     37.10     37.33    -21.00     20.00
   30.6778     37.41     37.27    -20.63     20.00
   30.6880     36.71     37.20    -21.26     20.00
   30.6982     37.17     37.14    -20.74     20.00
   30.7083     36.49     37.08    -21.36     20.00
   30.7185     36.59     37.02    -21.20     20.00
   30.7286     37.37     36.96    -20.36     20.00
   30.7388     36.57     36.90    -21.10     20.00
   30.7490     36.26     36.84    -21.35     20.00
   30.7591     36.56     36.78    -20.99     20.00
   30.7693     36.27     36.72    -21.22     20.00
   30.7795     36.91     36.66    -20.52     20.00
   30.7896     35.93     36.60    -21.44     20.00
   30.7998     35.91     36.54    -21.40     20.00
   30.8100     35.40     36.48    -21.85     20.00
   30.8201     36.36     36.42    -20.83     20.00
   30.8303     35.74     36.37    -21.40     20.00
   30.8405     36.21     36.31    -20.87     20.00
   30.8506     36.21     36.25    -20.81     20.00
   30.8608     36.29     36.20    -20.68     20.00
   30.8710     35.82     36.14    -21.09     20.00
   30.8811     35.74     36.08    -21.11     20.00
   30.8913     36.12     36.03    -20.68     20.00
   30.9014     34.55     35.97    -22.19     20.00
   30.9116     36.49     35.92    -20.20     20.00
   30.9218     36.23     35.86    -20.40     20.00
   30.9319     34.90     35.81    -21.68     20.00
   30.9421     35.41     35.75    -21.11     20.00
   30.9523     35.80     35.70    -20.67     20.00
   30.9624     35.34     35.64    -21.07     20.00
   30.9726     35.50     35.59    -20.86     20.00
   30.9828     35.56     35.54    -20.75     20.00
   30.9929     35.15     35.48    -21.10     20.00
   31.0031     35.95     35.43    -20.25     20.00
   31.0133     34.92     35.38    -21.23     20.00
   31.0234     34.88     35.33    -21.22     20.00
   31.0336     34.87     35.27    -21.17     20.00
   31.0437     35.90     35.22    -20.09     20.00
   31.0539     34.57     35.17    -21.37     20.00
   31.0641     35.10     35.12    -20.79     20.00
   31.0742     34.66     35.07    -21.18     20.00
   31.0844     34.77     35.02    -21.02     20.00
   31.0946     35.33     34.97    -20.41     20.00
   31.1047     34.34     34.92    -21.35     20.00
   31.1149     34.35     34.87    -21.29     20.00
   31.1251     35.47     34.83    -20.13     20.00
   31.1352     34.21     34.78    -21.34     20.00
   31.1454     33.38     34.73    -22.12     20.00
   31.1556     35.35     34.68    -20.10     20.00
   31.1657     34.63     34.64    -20.78     20.00
   31.1759     35.52     34.59    -19.84     20.00
   31.1860     34.88     34.54    -20.43     20.00
   31.1962     34.93     34.50    -20.34     20.00
   31.2064     33.93     34.45    -21.29     20.00
   31.2165     34.37     34.41    -20.81     20.00
   31.2267     34.24     34.36    -20.89     20.00
   31.2369     34.08     34.32    -21.01     20.00
   31.2470     34.27     34.27    -20.77     20.00
   31.2572     34.35     34.23    -20.65     20.00
   31.2674     34.16     34.18    -20.79     20.00
   31.2775     34.17     34.14    -20.74     20.00
   31.2877     34.18     34.10    -20.69     20.00
   31.2979     34.09     34.05    -20.73     20.00
   31.3080     34.63     34.01    -20.15     20.00
   31.3182     34.42     33.97    -20.32     20.00
   31.3284     34.05     33.93    -20.65     20.00
   31.3385     34.07     33.89    -20.59     20.00
   31.3487     34.36     33.85    -20.26     20.00
   31.3588     34.44     33.81    -20.14     20.00
   31.3690     34.40     33.77    -20.14     20.00
   31.3792     33.13     33.73    -21.37     20.00
   31.3893     34.11     33.69    -20.35     20.00
   31.3995     33.15     33.65    -21.27     20.00
   31.4097     34.11     33.61    -20.27     20.00
   31.4198     33.27     33.57    -21.07     20.00
   31.4300     33.93     33.54    -20.38     20.00
   31.4402     34.34     33.50    -19.93     20.00
   31.4503     33.45     33.46    -20.78     20.00
   31.4605     33.71     33.42    -20.48     20.00
   31.4707     33.49     33.39    -20.67     20.00
   31.4808     33.91     33.35    -20.21     20.00
   31.4910     33.64     33.32    -20.45     20.00
   31.5011     33.87     33.28    -20.18     20.00
   31.5113     33.50     33.25    -20.52     20.00
   31.5215     33.04     33.21    -20.94     20.00
   31.5316     33.65     33.18    -20.30     20.00
   31.5418     33.40     33.14    -20.51     20.00
   31.5520     33.34     33.11    -20.54     20.00
   31.5621     33.47     33.08    -20.38     20.00
   31.5723     34.60     33.05    -19.22     20.00
   31.5825     33.72     33.01    -20.06     20.00
   31.5926     33.88     32.98    -19.87     20.00
   31.6028     33.29     32.95    -20.43     20.00
   31.6130     33.25     32.92    -20.44     20.00
   31.6231     33.72     32.89    -19.94     20.00
   31.6333     32.80     32.86    -20.83     20.00
   31.6435     33.70     32.83    -19.90     20.00
   31.6536     32.01     32.80    -21.56     20.00
   31.6638     32.23     32.77    -21.31     20.00
   31.6739     32.86     32.74    -20.65     20.00
   31.6841     32.66     32.71    -20.82     20.00
   31.6943     33.07     32.69    -20.39     20.00
   31.7044     33.04     32.66    -20.39     20.00
   31.7146     34.26     32.63    -19.14     20.00
   31.7248     32.53     32.60    -20.84     20.00
   31.7349     32.86     32.58    -20.49     20.00
   31.7451     32.91     32.55    -20.41     20.00
   31.7553     32.63     32.53    -20.67     20.00
   31.7654     33.79     32.50    -19.48     20.00
   31.7756     33.74     32.48    -19.51     20.00
   31.7858     33.11     32.45    -20.11     20.00
   31.7959     33.13     32.43    -20.07     20.00
   31.8061     33.35     32.40    -19.82     20.00
   31.8162     33.05     32.38    -20.10     20.00
   31.8264     32.88     32.36    -20.25     20.00
   31.8366     33.02     32.33    -20.08     20.00
   31.8467     32.00     32.31    -21.08     20.00
   31.8569     32.21     32.29    -20.85     20.00
   31.8671     33.37     32.27    -19.67     20.00
   31.8772     32.83     32.25    -20.19     20.00
   31.8874     32.29     32.22    -20.70     20.00
   31.8976     33.38     32.20    -19.59     20.00
   31.9077     32.98     32.18    -19.97     20.00
   31.9179     33.13     32.16    -19.80     20.00
   31.9281     33.13     32.14    -19.78     20.00
   31.9382     32.05     32.12    -20.84     20.00
   31.9484     32.19     32.11    -20.69     20.00
   31.9586     33.05     32.09    -19.81     20.00
   31.9687     32.99     32.07    -19.85     20.00
   31.9789     32.31     32.05    -20.51     20.00
   31.9890     32.52     32.03    -20.28     20.00
   31.9992     32.73     32.02    -20.06     20.00
   32.0094     32.56     32.00    -20.21     20.00
   32.0195     32.72     31.98    -20.03     20.00
   32.0297     33.42     31.97    -19.32     20.00
   32.0399     33.21     31.95    -19.51     20.00
   32.0500     33.60     31.93    -19.10     20.00
   32.0602     32.43     31.92    -20.26     20.00
   32.0704     32.68     31.90    -19.99     20.00
   32.0805     32.23     31.89    -20.43     20.00
   32.0907     33.10     31.88    -19.55     20.00
   32.1009     32.66     31.86    -19.97     20.00
   32.1110     32.85     31.85    -19.77     20.00
   32.1212     31.76     31.83    -20.84     20.00
   32.1313     32.46     31.82    -20.13     20.00
   32.1415     33.01     31.81    -19.57     20.00
   32.1517     31.79     31.80    -20.78     20.00
   32.1618     32.76     31.78    -19.79     20.00
   32.1720     32.40     31.77    -20.14     20.00
   32.1822     33.21     31.76    -19.32     20.00
   32.1923     32.50     31.75    -20.02     20.00
   32.2025     32.79     31.74    -19.72     20.00
   32.2127     32.79     31.73    -19.71     20.00
   32.2228     32.71     31.72    -19.78     20.00
   32.2330     33.03     31.71    -19.45     20.00
   32.2432     33.64     31.70    -18.83     20.00
   32.2533     32.48     31.69    -19.98     20.00
   32.2635     33.09     31.68    -19.36     20.00
   32.2737     32.15     31.67    -20.29     20.00
   32.2838     32.25     31.66    -20.18     20.00
   32.2940     33.87     31.65    -18.55     20.00
   32.3041     32.24     31.64    -20.17     20.00
   32.3143     32.40     31.64    -20.01     20.00
   32.3245     32.32     31.63    -20.08     20.00
   32.3346     33.15     31.62    -19.24     20.00
   32.3448     32.10     31.61    -20.28     20.00
   32.3550     32.28     31.61    -20.10     20.00
   32.3651     32.77     31.60    -19.60     20.00
   32.3753     32.23     31.59    -20.13     20.00
   32.3855     32.57     31.59    -19.79     20.00
   32.3956     31.66     31.58    -20.69     20.00
   32.4058     32.34     31.57    -20.00     20.00
   32.4160     32.18     31.57    -20.16     20.00
   32.4261     31.49     31.56    -20.84     20.00
   32.4363     32.63     31.56    -19.70     20.00
   32.4464     33.12     31.55    -19.20     20.00
   32.4566     32.13     31.55    -20.19     20.00
   32.4668     32.49     31.54    -19.82     20.00
   32.4769     32.92     31.54    -19.39     20.00
   32.4871     32.30     31.53    -20.00     20.00
   32.4973     32.34     31.53    -19.96     20.00
   32.5074     32.02     31.52    -20.27     20.00
   32.5176     33.26     31.52    -19.03     20.00
   32.5278     32.79     31.52    -19.50     20.00
   32.5379     33.01     31.51    -19.27     20.00
   32.5481     32.28     31.51    -20.00     20.00
   32.5583     32.57     31.50    -19.70     20.00
   32.5684     33.02     31.50    -19.25     20.00
   32.5786     31.98     31.50    -20.29     20.00
   32.5888     32.22     31.49    -20.04     20.00
   32.5989     32.69     31.49    -19.57     20.00
   32.6091     31.05     31.49    -21.21     20.00
   32.6192     31.96     31.49    -20.30     20.00
   32.6294     31.96     31.48    -20.29     20.00
   32.6396     32.23     31.48    -20.02     20.00
   32.6497     32.25     31.48    -20.00     20.00
   32.6599     32.49     31.48    -19.76     20.00
   32.6701     31.62     31.47    -20.62     20.00
   32.6802     32.20     31.47    -20.04     20.00
   32.6904     32.59     31.47    -19.65     20.00
   32.7006     31.35     31.47    -20.89     20.00
   32.7107     32.05     31.46    -20.18     20.00
   32.7209     32.20     31.46    -20.03     20.00
   32.7311     31.89     31.46    -20.34     20.00
   32.7412     31.63     31.46    -20.60     20.00
   32.7514     31.64     31.45    -20.58     20.00
   32.7615     32.48     31.45    -19.74     20.00
   32.7717     32.09     31.45    -20.13     20.00
   32.7819     32.20     31.45    -20.02     20.00
   32.7920     32.67     31.45    -19.55     20.00
   32.8022     31.74     31.44    -20.47     20.00
   32.8124     32.00     31.44    -20.21     20.00
   32.8225     32.01     31.44    -20.20     20.00
   32.8327     31.57     31.44    -20.64     20.00
   32.8429     32.26     31.43    -19.94     20.00
   32.8530     32.00     31.43    -20.20     20.00
   32.8632     32.24     31.43    -19.96     20.00
   32.8734     32.50     31.43    -19.70     20.00
   32.8835     32.12     31.42    -20.07     20.00
   32.8937     31.90     31.42    -20.29     20.00
   32.9039     32.52     31.42    -19.67     20.00
   32.9140     32.21     31.42    -19.98     20.00
   32.9242     32.74     31.41    -19.44     20.00
   32.9343     32.30     31.41    -19.88     20.00
   32.9445     32.05     31.41    -20.13     20.00
   32.9547     31.54     31.40    -20.63     20.00
   32.9648     32.54     31.40    -19.63     20.00
   32.9750     31.70     31.40    -20.47     20.00
   32.9852     31.95     31.39    -20.21     20.00
   32.9953     32.60     31.39    -19.56     20.00
   33.0055     32.12     31.39    -20.04     20.00
   33.0157     32.20     31.38    -19.95     20.00
   33.0258     33.40     31.38    -18.75     20.00
   33.0360     32.07     31.37    -20.07     20.00
   33.0462     32.62     31.37    -19.52     20.00
   33.0563     32.97     31.36    -19.16     20.00
   33.0665     32.41     31.36    -19.72     20.00
   33.0766     31.52     31.35    -20.60     20.00
   33.0868     32.73     31.35    -19.39     20.00
   33.0970     32.06     31.34    -20.05     20.00
   33.1071     32.09     31.34    -20.02     20.00
   33.1173     31.79     31.33    -20.31     20.00
   33.1275     32.22     31.32    -19.87     20.00
   33.1376     31.84     31.32    -20.25     20.00
   33.1478     32.17     31.31    -19.91     20.00
   33.1580     31.76     31.30    -20.31     20.00
   33.1681     31.30     31.30    -20.77     20.00
   33.1783     33.27     31.29    -18.79     20.00
   33.1885     32.21     31.28    -19.84     20.00
   33.1986     31.62     31.27    -20.42     20.00
   33.2088     32.66     31.27    -19.38     20.00
   33.2189     31.97     31.26    -20.06     20.00
   33.2291     32.18     31.25    -19.84     20.00
   33.2393     32.13     31.24    -19.88     20.00
   33.2494     32.09     31.23    -19.91     20.00
   33.2596     31.53     31.22    -20.46     20.00
   33.2698     32.66     31.21    -19.32     20.00
   33.2799     32.71     31.20    -19.26     20.00
   33.2901     32.02     31.19    -19.94     20.00
   33.3003     32.23     31.18    -19.72     20.00
   33.3104     32.29     31.17    -19.65     20.00
   33.3206     32.60     31.16    -19.33     20.00
   33.3308     32.93     31.15    -18.99     20.00
   33.3409     32.24     31.13    -19.66     20.00
   33.3511     32.76     31.12    -19.13     20.00
   33.3613     32.33     31.11    -19.55     20.00
   33.3714     32.80     31.10    -19.07     20.00
   33.3816     33.10     31.08    -18.75     20.00
   33.3917     32.63     31.07    -19.21     20.00
   33.4019     32.20     31.06    -19.63     20.00
   33.4121     33.01     31.04    -18.80     20.00
   33.4222     32.23     31.03    -19.57     20.00
   33.4324     31.76     31.01    -20.02     20.00
   33.4426     32.49     31.00    -19.28     20.00
   33.4527     32.11     30.98    -19.64     20.00
   33.4629     32.18     30.97    -19.56     20.00
   33.4731     32.67     30.95    -19.05     20.00
   33.4832     31.78     30.93    -19.92     20.00
   33.4934     31.40     30.92    -20.29     20.00
   33.5036     32.30     30.90    -19.37     20.00
   33.5137     32.51     30.88    -19.14     20.00
   33.5239     31.84     30.87    -19.80     20.00
   33.5340     30.90     30.85    -20.72     20.00
   33.5442     31.43     30.83    -20.17     20.00
   33.5544     31.87     30.81    -19.71     20.00
   33.5645     32.12     30.79    -19.44     20.00
   33.5747     31.38     30.77    -20.16     20.00
   33.5849     30.80     30.75    -20.72     20.00
   33.5950     31.97     30.73    -19.53     20.00
   33.6052     30.65     30.71    -20.83     20.00
   33.6154     30.68     30.69    -20.78     20.00
   33.6255     31.60     30.67    -19.84     20.00
   33.6357     31.27     30.65    -20.15     20.00
   33.6459     31.08     30.63    -20.32     20.00
   33.6560     31.05     30.61    -20.33     20.00
   33.6662     30.55     30.59    -20.81     20.00
   33.6764     30.64     30.56    -20.69     20.00
   33.6865     30.76     30.54    -20.55     20.00
   33.6967     30.88     30.52    -20.41     20.00
   33.7068     30.78     30.50    -20.49     20.00
   33.7170     31.41     30.47    -19.83     20.00
   33.7272     30.58     30.45    -20.64     20.00
   33.7373     29.95     30.42    -21.24     20.00
   33.7475     30.14     30.40    -21.03     20.00
   33.7577     29.40     30.38    -21.75     20.00
   33.7678     29.74     30.35    -21.38     20.00
   33.7780     30.48     30.33    -20.62     20.00
   33.7882     30.66     30.30    -20.41     20.00
   33.7983     29.18     30.28    -21.87     20.00
   33.8085     29.87     30.25    -21.15     20.00
   33.8187     29.00     30.22    -21.99     20.00
   33.8288     30.01     30.20    -20.96     20.00
   33.8390     29.85     30.17    -21.09     20.00
   33.8491     29.26     30.15    -21.66     20.00
   33.8593     29.32     30.12    -21.57     20.00
   33.8695     28.86     30.09    -22.00     20.00
   33.8796     29.88     30.06    -20.95     20.00
   33.8898     29.40     30.04    -21.41     20.00
   33.9000     29.42     30.01    -21.36     20.00
   33.9101     29.10     29.98    -21.65     20.00
   33.9203     29.38     29.95    -21.34     20.00
   33.9305     29.00     29.92    -21.69     20.00
   33.9406     28.87     29.90    -21.80     20.00
   33.9508     28.96     29.87    -21.68     20.00
   33.9610     28.84     29.84    -21.77     20.00
   33.9711     27.73     29.81    -22.85     20.00
   33.9813     28.84     29.78    -21.71     20.00
   33.9915     28.54     29.75    -21.98     20.00
   34.0016     29.06     29.72    -21.43     20.00
   34.0118     28.41     29.69    -22.05     20.00
   34.0219     28.65     29.66    -21.78     20.00
   34.0321     28.30     29.63    -22.10     20.00
   34.0423     28.30     29.60    -22.07     20.00
   34.0524     28.50     29.57    -21.84     20.00
   34.0626     26.71     29.54    -23.60     20.00
   34.0728     28.02     29.51    -22.26     20.00
   34.0829     28.07     29.48    -22.18     20.00
   34.0931     28.10     29.45    -22.12     20.00
   34.1033     27.78     29.42    -22.41     20.00
   34.1134     28.20     29.39    -21.96     20.00
   34.1236     28.61     29.36    -21.52     20.00
   34.1338     27.91     29.33    -22.19     20.00
   34.1439     27.78     29.30    -22.29     20.00
   34.1541     28.41     29.27    -21.63     20.00
   34.1642     28.40     29.24    -21.61     20.00
   34.1744     27.36     29.21    -22.62     20.00
   34.1846     27.88     29.18    -22.07     20.00
   34.1947     28.04     29.14    -21.87     20.00
   34.2049     27.48     29.11    -22.40     20.00
   34.2151     27.41     29.08    -22.44     20.00
   34.2252     27.65     29.05    -22.17     20.00
   34.2354     27.59     29.02    -22.20     20.00
   34.2456     27.39     28.99    -22.37     20.00
   34.2557     27.55     28.96    -22.18     20.00
   34.2659     27.12     28.92    -22.57     20.00
   34.2761     27.35     28.89    -22.31     20.00
   34.2862     27.05     28.86    -22.58     20.00
   34.2964     27.09     28.83    -22.51     20.00
   34.3066     26.76     28.80    -22.81     20.00
   34.3167     27.57     28.77    -21.97     20.00
   34.3269     27.68     28.73    -21.82     20.00
   34.3370     27.44     28.70    -22.03     20.00
   34.3472     27.91     28.67    -21.53     20.00
   34.3574     27.07     28.64    -22.34     20.00
   34.3675     27.28     28.61    -22.10     20.00
   34.3777     26.72     28.58    -22.63     20.00
   34.3879     27.23     28.54    -22.08     20.00
   34.3980     26.97     28.51    -22.31     20.00
   34.4082     27.79     28.48    -21.46     20.00
   34.4184     26.57     28.45    -22.65     20.00
   34.4285     27.26     28.42    -21.93     20.00
   34.4387     27.01     28.39    -22.15     20.00
   34.4489     26.88     28.36    -22.25     20.00
   34.4590     26.44     28.32    -22.65     20.00
   34.4692     26.74     28.29    -22.32     20.00
   34.4793     27.10     28.26    -21.93     20.00
   34.4895     27.41     28.23    -21.59     20.00
   34.4997     27.05     28.20    -21.92     20.00
   34.5098     26.17     28.17    -22.77     20.00
   34.5200     26.74     28.14    -22.17     20.00
   34.5302     27.46     28.10    -21.41     20.00
   34.5403     26.22     28.07    -22.62     20.00
   34.5505     26.27     28.04    -22.54     20.00
   34.5607     26.64     28.01    -22.14     20.00
   34.5708     26.79     27.98    -21.96     20.00
   34.5810     27.01     27.95    -21.71     20.00
   34.5912     26.99     27.92    -21.70     20.00
   34.6013     26.50     27.89    -22.16     20.00
   34.6115     26.87     27.86    -21.76     20.00
   34.6217     26.76     27.83    -21.84     20.00
   34.6318     27.13     27.80    -21.44     20.00
   34.6420     26.05     27.77    -22.49     20.00
   34.6521     26.25     27.74    -22.26     20.00
   34.6623     26.22     27.71    -22.26     20.00
   34.6725     26.90     27.68    -21.55     20.00
   34.6826     26.50     27.65    -21.92     20.00
   34.6928     26.27     27.62    -22.12     20.00
   34.7030     26.41     27.59    -21.95     20.00
   34.7131     25.91     27.56    -22.42     20.00
   34.7233     26.16     27.53    -22.14     20.00
   34.7335     26.13     27.50    -22.14     20.00
   34.7436     26.47     27.47    -21.77     20.00
   34.7538     26.79     27.44    -21.42     20.00
   34.7640     26.33     27.41    -21.85     20.00
   34.7741     26.25     27.38    -21.90     20.00
   34.7843     26.37     27.35    -21.75     20.00
   34.7944     26.07     27.32    -22.02     20.00
   34.8046     26.13     27.29    -21.93     20.00
   34.8148     26.12     27.26    -21.91     20.00
   34.8249     25.93     27.24    -22.08     20.00
   34.8351     26.60     27.21    -21.38     20.00
   34.8453     26.46     27.18    -21.49     20.00
   34.8554     26.46     27.15    -21.46     20.00
   34.8656     26.37     27.12    -21.52     20.00
   34.8758     26.16     27.09    -21.70     20.00
   34.8859     26.29     27.07    -21.55     20.00
   34.8961     25.95     27.04    -21.86     20.00
   34.9063     26.08     27.01    -21.70     20.00
   34.9164     26.46     26.98    -21.29     20.00
   34.9266     25.62     26.95    -22.10     20.00
   34.9367     26.32     26.93    -21.38     20.00
   34.9469     26.73     26.90    -20.94     20.00
   34.9571     25.57     26.87    -22.07     20.00
   34.9672     25.91     26.85    -21.71     20.00
   34.9774     25.66     26.82    -21.93     20.00
   34.9876     26.23     26.79    -21.33     20.00
   34.9977     26.06     26.77    -21.48     20.00
   35.0079     25.99     26.74    -21.52     20.00
   35.0181     25.47     26.71    -22.01     20.00
   35.0282     26.13     26.69    -21.33     20.00
   35.0384     25.40     26.66    -22.03     20.00
   35.0486     25.94     26.63    -21.46     20.00
   35.0587     26.07     26.61    -21.31     20.00
   35.0689     25.69     26.58    -21.66     20.00
   35.0791     26.01     26.56    -21.32     20.00
   35.0892     25.99     26.53    -21.31     20.00
   35.0994     25.10     26.51    -22.18     20.00
   35.1095     26.11     26.48    -21.14     20.00
   35.1197     25.37     26.46    -21.86     20.00
   35.1299     26.07     26.43    -21.13     20.00
   35.1400     26.29     26.41    -20.89     20.00
   35.1502     25.60     26.38    -21.55     20.00
   35.1604     25.97     26.36    -21.16     20.00
   35.1705     25.25     26.33    -21.85     20.00
   35.1807     25.48     26.31    -21.60     20.00
   35.1909     25.95     26.28    -21.10     20.00
   35.2010     25.82     26.26    -21.21     20.00
   35.2112     26.13     26.24    -20.88     20.00
   35.2214     25.15     26.21    -21.83     20.00
   35.2315     25.75     26.19    -21.21     20.00
   35.2417     26.02     26.16    -20.91     20.00
   35.2518     25.38     26.14    -21.53     20.00
   35.2620     25.68     26.12    -21.21     20.00
   35.2722     25.64     26.10    -21.23     20.00
   35.2823     25.05     26.07    -21.79     20.00
   35.2925     25.16     26.05    -21.66     20.00
   35.3027     25.27     26.03    -21.53     20.00
   35.3128     25.54     26.00    -21.23     20.00
   35.3230     25.23     25.98    -21.52     20.00
   35.3332     25.23     25.96    -21.50     20.00
   35.3433     25.15     25.94    -21.56     20.00
   35.3535     25.85     25.92    -20.84     20.00
   35.3637     25.57     25.89    -21.09     20.00
   35.3738     25.18     25.87    -21.46     20.00
   35.3840     25.75     25.85    -20.87     20.00
   35.3942     24.79     25.83    -21.81     20.00
   35.4043     24.93     25.81    -21.65     20.00
   35.4145     25.30     25.79    -21.26     20.00
   35.4246     25.44     25.77    -21.10     20.00
   35.4348     25.47     25.75    -21.05     20.00
   35.4450     25.69     25.72    -20.80     20.00
   35.4551     25.18     25.70    -21.29     20.00
   35.4653     25.70     25.68    -20.75     20.00
   35.4755     25.82     25.66    -20.61     20.00
   35.4856     25.72     25.64    -20.69     20.00
   35.4958     25.54     25.62    -20.85     20.00
   35.5060     25.21     25.60    -21.16     20.00
   35.5161     24.93     25.58    -21.42     20.00
   35.5263     25.36     25.56    -20.97     20.00
   35.5365     25.10     25.54    -21.21     20.00
   35.5466     25.24     25.52    -21.05     20.00
   35.5568     25.65     25.51    -20.63     20.00
   35.5669     25.53     25.49    -20.73     20.00
   35.5771     24.59     25.47    -21.65     20.00
   35.5873     26.05     25.45    -20.17     20.00
   35.5974     25.75     25.43    -20.45     20.00
   35.6076     24.77     25.41    -21.41     20.00
   35.6178     25.21     25.39    -20.95     20.00
   35.6279     25.27     25.37    -20.87     20.00
   35.6381     24.82     25.36    -21.31     20.00
   35.6483     25.47     25.34    -20.64     20.00
   35.6584     25.49     25.32    -20.60     20.00
   35.6686     24.38     25.30    -21.69     20.00
   35.6788     25.17     25.28    -20.88     20.00
   35.6889     25.04     25.27    -21.00     20.00
   35.6991     24.91     25.25    -21.11     20.00
   35.7093     25.60     25.23    -20.40     20.00
   35.7194     25.40     25.22    -20.59     20.00
   35.7296     25.45     25.20    -20.52     20.00
   35.7397     25.54     25.18    -20.41     20.00
   35.7499     25.45     25.16    -20.48     20.00
   35.7601     25.29     25.15    -20.63     20.00
   35.7702     25.01     25.13    -20.89     20.00
   35.7804     25.16     25.11    -20.72     20.00
   35.7906     25.09     25.10    -20.78     20.00
   35.8007     25.24     25.08    -20.61     20.00
   35.8109     25.09     25.07    -20.75     20.00
   35.8211     25.28     25.05    -20.54     20.00
   35.8312     24.94     25.03    -20.86     20.00
   35.8414     25.34     25.02    -20.45     20.00
   35.8516     25.37     25.00    -20.40     20.00
   35.8617     24.97     24.99    -20.79     20.00
   35.8719     25.20     24.97    -20.54     20.00
   35.8820     24.59     24.96    -21.14     20.00
   35.8922     25.02     24.94    -20.69     20.00
   35.9024     25.60     24.93    -20.10     20.00
   35.9125     25.02     24.91    -20.66     20.00
   35.9227     25.41     24.90    -20.26     20.00
   35.9329     24.42     24.88    -21.23     20.00
   35.9430     25.29     24.87    -20.35     20.00
   35.9532     25.32     24.85    -20.30     20.00
   35.9634     25.01     24.84    -20.60     20.00
   35.9735     25.16     24.82    -20.43     20.00
   35.9837     25.78     24.81    -19.80     20.00
   35.9939     24.88     24.80    -20.69     20.00
