 => TITLE: 
 => Data file name: C:\Users\stefano\Nextcloud2\uni\master-thesis\XRD\data\G306\G306--5-40-0.01-1000ms.xy
 => Instrm        :    1
 => Lambda(1&2)   :   1.54060  1.54060
 => Numb.of.points:      2951
 => Numb.of.peaks :         7
    2Theta     Yobs     Ycalc  Yobs-Ycal    Backg    Bragg     Posr  Intensity   FWHM    Eta
    6.0086     25.25     26.74    -22.38     20.00   18.6821      1.69     139.07  0.8016  0.7594
    6.0187     25.43     26.75    -22.21     20.00   20.6329      1.69      11.95  0.5330  0.7594
    6.0289     25.52     26.76    -22.13     20.00   22.5481      1.69      97.75  1.1427  0.7594
    6.0391     26.04     26.77    -21.62     20.00   28.4200      1.69      57.22  1.7124  0.7594
    6.0492     25.54     26.78    -22.13     20.00   29.9342      1.69      34.31  3.0657  0.7594
    6.0594     25.40     26.79    -22.28     20.00   33.3542      1.69      15.04  3.0657  0.7594
    6.0696     25.18     26.80    -22.51     20.00   19.5310      1.69    1277.00  8.4919  0.7594
    6.0797     25.71     26.81    -21.99     20.00
    6.0899     25.23     26.82    -22.47     20.00
    6.1001     25.56     26.83    -22.15     20.00
    6.1102     24.80     26.84    -22.92     20.00
    6.1204     25.03     26.85    -22.70     20.00
    6.1306     24.72     26.86    -23.02     20.00
    6.1407     24.52     26.87    -23.23     20.00
    6.1509     24.45     26.88    -23.31     20.00
    6.1611     25.06     26.89    -22.71     20.00
    6.1712     24.78     26.90    -23.00     20.00
    6.1814     24.64     26.91    -23.15     20.00
    6.1915     24.75     26.92    -23.05     20.00
    6.2017     24.69     26.93    -23.12     20.00
    6.2119     24.57     26.94    -23.25     20.00
    6.2220     24.85     26.95    -22.98     20.00
    6.2322     24.93     26.96    -22.91     20.00
    6.2424     24.97     26.97    -22.88     20.00
    6.2525     24.98     26.98    -22.88     20.00
    6.2627     25.32     26.99    -22.55     20.00
    6.2729     24.81     27.00    -23.07     20.00
    6.2830     24.98     27.01    -22.91     20.00
    6.2932     24.90     27.02    -23.00     20.00
    6.3034     25.61     27.03    -22.30     20.00
    6.3135     25.15     27.04    -22.77     20.00
    6.3237     25.25     27.05    -22.68     20.00
    6.3338     25.20     27.06    -22.74     20.00
    6.3440     24.96     27.07    -22.99     20.00
    6.3542     24.43     27.08    -23.53     20.00
    6.3643     24.52     27.09    -23.45     20.00
    6.3745     24.77     27.10    -23.21     20.00
    6.3847     24.45     27.11    -23.54     20.00
    6.3948     24.88     27.12    -23.13     20.00
    6.4050     25.68     27.13    -22.34     20.00
    6.4152     25.45     27.14    -22.58     20.00
    6.4253     25.08     27.15    -22.96     20.00
    6.4355     25.30     27.16    -22.75     20.00
    6.4457     25.20     27.17    -22.86     20.00
    6.4558     25.42     27.18    -22.65     20.00
    6.4660     25.67     27.19    -22.41     20.00
    6.4762     24.26     27.20    -23.83     20.00
    6.4863     25.96     27.22    -22.14     20.00
    6.4965     25.15     27.23    -22.96     20.00
    6.5066     24.84     27.24    -23.28     20.00
    6.5168     25.11     27.25    -23.02     20.00
    6.5270     25.23     27.26    -22.91     20.00
    6.5371     25.32     27.27    -22.83     20.00
    6.5473     25.12     27.28    -23.04     20.00
    6.5575     25.29     27.29    -22.88     20.00
    6.5676     25.65     27.30    -22.53     20.00
    6.5778     26.13     27.31    -22.07     20.00
    6.5880     25.62     27.32    -22.59     20.00
    6.5981     24.88     27.33    -23.34     20.00
    6.6083     24.88     27.34    -23.35     20.00
    6.6185     25.29     27.36    -22.95     20.00
    6.6286     25.53     27.37    -22.72     20.00
    6.6388     25.48     27.38    -22.78     20.00
    6.6489     25.83     27.39    -22.44     20.00
    6.6591     25.85     27.40    -22.43     20.00
    6.6693     25.63     27.41    -22.66     20.00
    6.6794     25.66     27.42    -22.65     20.00
    6.6896     25.10     27.43    -23.22     20.00
    6.6998     25.85     27.44    -22.48     20.00
    6.7099     26.42     27.45    -21.92     20.00
    6.7201     25.92     27.47    -22.43     20.00
    6.7303     25.74     27.48    -22.62     20.00
    6.7404     26.33     27.49    -22.04     20.00
    6.7506     25.13     27.50    -23.25     20.00
    6.7608     26.00     27.51    -22.39     20.00
    6.7709     25.67     27.52    -22.74     20.00
    6.7811     26.06     27.53    -22.36     20.00
    6.7913     25.65     27.54    -22.78     20.00
    6.8014     26.63     27.56    -21.81     20.00
    6.8116     26.95     27.57    -21.50     20.00
    6.8217     26.78     27.58    -21.68     20.00
    6.8319     25.88     27.59    -22.59     20.00
    6.8421     25.51     27.60    -22.98     20.00
    6.8522     25.88     27.61    -22.62     20.00
    6.8624     26.18     27.63    -22.33     20.00
    6.8726     26.06     27.64    -22.46     20.00
    6.8827     26.40     27.65    -22.13     20.00
    6.8929     26.20     27.66    -22.34     20.00
    6.9031     25.58     27.67    -22.98     20.00
    6.9132     25.68     27.68    -22.89     20.00
    6.9234     25.94     27.70    -22.64     20.00
    6.9336     26.11     27.71    -22.48     20.00
    6.9437     26.42     27.72    -22.18     20.00
    6.9539     25.93     27.73    -22.68     20.00
    6.9640     26.31     27.74    -22.32     20.00
    6.9742     26.63     27.75    -22.01     20.00
    6.9844     25.70     27.77    -22.95     20.00
    6.9945     26.74     27.78    -21.92     20.00
    7.0047     26.38     27.79    -22.29     20.00
    7.0149     26.62     27.80    -22.07     20.00
    7.0250     27.14     27.81    -21.56     20.00
    7.0352     25.87     27.83    -22.84     20.00
    7.0454     27.15     27.84    -21.57     20.00
    7.0555     25.88     27.85    -22.85     20.00
    7.0657     26.36     27.86    -22.39     20.00
    7.0759     26.18     27.88    -22.58     20.00
    7.0860     27.04     27.89    -21.73     20.00
    7.0962     26.65     27.90    -22.13     20.00
    7.1064     26.35     27.91    -22.45     20.00
    7.1165     26.59     27.92    -22.22     20.00
    7.1267     26.43     27.94    -22.39     20.00
    7.1368     26.59     27.95    -22.24     20.00
    7.1470     26.66     27.96    -22.19     20.00
    7.1572     27.40     27.97    -21.46     20.00
    7.1673     26.52     27.99    -22.35     20.00
    7.1775     26.72     28.00    -22.16     20.00
    7.1877     27.83     28.01    -21.07     20.00
    7.1978     27.37     28.02    -21.54     20.00
    7.2080     26.53     28.04    -22.39     20.00
    7.2182     27.26     28.05    -21.67     20.00
    7.2283     26.41     28.06    -22.54     20.00
    7.2385     27.19     28.07    -21.77     20.00
    7.2487     27.10     28.09    -21.87     20.00
    7.2588     27.36     28.10    -21.62     20.00
    7.2690     25.74     28.11    -23.26     20.00
    7.2791     27.24     28.13    -21.77     20.00
    7.2893     28.33     28.14    -20.69     20.00
    7.2995     27.25     28.15    -21.79     20.00
    7.3096     27.54     28.16    -21.51     20.00
    7.3198     27.76     28.18    -21.30     20.00
    7.3300     26.82     28.19    -22.25     20.00
    7.3401     27.49     28.20    -21.60     20.00
    7.3503     27.02     28.22    -22.08     20.00
    7.3605     27.25     28.23    -21.86     20.00
    7.3706     27.42     28.24    -21.71     20.00
    7.3808     27.60     28.26    -21.54     20.00
    7.3910     27.43     28.27    -21.72     20.00
    7.4011     27.91     28.28    -21.26     20.00
    7.4113     27.92     28.30    -21.26     20.00
    7.4215     26.86     28.31    -22.33     20.00
    7.4316     26.63     28.32    -22.58     20.00
    7.4418     26.87     28.34    -22.35     20.00
    7.4519     27.63     28.35    -21.60     20.00
    7.4621     27.63     28.36    -21.62     20.00
    7.4723     27.56     28.38    -21.70     20.00
    7.4824     27.77     28.39    -21.50     20.00
    7.4926     27.49     28.40    -21.80     20.00
    7.5028     27.93     28.42    -21.37     20.00
    7.5129     27.54     28.43    -21.78     20.00
    7.5231     26.72     28.45    -22.61     20.00
    7.5333     28.21     28.46    -21.13     20.00
    7.5434     27.85     28.47    -21.51     20.00
    7.5536     28.27     28.49    -21.10     20.00
    7.5638     27.95     28.50    -21.43     20.00
    7.5739     27.82     28.51    -21.58     20.00
    7.5841     28.48     28.53    -20.93     20.00
    7.5942     28.26     28.54    -21.17     20.00
    7.6044     27.82     28.56    -21.62     20.00
    7.6146     27.41     28.57    -22.04     20.00
    7.6247     28.29     28.58    -21.18     20.00
    7.6349     28.15     28.60    -21.33     20.00
    7.6451     27.97     28.61    -21.53     20.00
    7.6552     28.00     28.63    -21.51     20.00
    7.6654     27.99     28.64    -21.54     20.00
    7.6756     27.87     28.66    -21.67     20.00
    7.6857     28.01     28.67    -21.54     20.00
    7.6959     27.66     28.68    -21.91     20.00
    7.7061     28.13     28.70    -21.45     20.00
    7.7162     28.04     28.71    -21.56     20.00
    7.7264     27.57     28.73    -22.04     20.00
    7.7365     28.40     28.74    -21.23     20.00
    7.7467     28.52     28.76    -21.12     20.00
    7.7569     28.76     28.77    -20.90     20.00
    7.7670     28.81     28.79    -20.86     20.00
    7.7772     28.60     28.80    -21.09     20.00
    7.7874     27.07     28.82    -22.63     20.00
    7.7975     28.46     28.83    -21.25     20.00
    7.8077     29.41     28.85    -20.32     20.00
    7.8179     27.74     28.86    -22.00     20.00
    7.8280     28.16     28.88    -21.60     20.00
    7.8382     29.35     28.89    -20.42     20.00
    7.8484     28.12     28.91    -21.67     20.00
    7.8585     29.24     28.92    -20.56     20.00
    7.8687     29.69     28.94    -20.13     20.00
    7.8789     29.75     28.95    -20.08     20.00
    7.8890     29.44     28.97    -20.41     20.00
    7.8992     28.39     28.98    -21.48     20.00
    7.9093     29.11     29.00    -20.77     20.00
    7.9195     29.09     29.01    -20.81     20.00
    7.9297     29.43     29.03    -20.48     20.00
    7.9398     28.85     29.04    -21.08     20.00
    7.9500     29.39     29.06    -20.55     20.00
    7.9602     30.09     29.07    -19.87     20.00
    7.9703     28.89     29.09    -21.08     20.00
    7.9805     29.15     29.10    -20.84     20.00
    7.9907     29.05     29.12    -20.95     20.00
    8.0008     29.07     29.14    -20.95     20.00
    8.0110     29.20     29.15    -20.84     20.00
    8.0212     29.48     29.17    -20.57     20.00
    8.0313     28.82     29.18    -21.25     20.00
    8.0415     29.45     29.20    -20.63     20.00
    8.0516     29.87     29.22    -20.23     20.00
    8.0618     29.61     29.23    -20.51     20.00
    8.0720     29.45     29.25    -20.68     20.00
    8.0821     29.63     29.26    -20.52     20.00
    8.0923     29.19     29.28    -20.97     20.00
    8.1025     28.91     29.30    -21.27     20.00
    8.1126     29.43     29.31    -20.77     20.00
    8.1228     28.83     29.33    -21.38     20.00
    8.1330     30.39     29.34    -19.84     20.00
    8.1431     30.35     29.36    -19.89     20.00
    8.1533     30.18     29.38    -20.08     20.00
    8.1635     29.98     29.39    -20.30     20.00
    8.1736     30.66     29.41    -19.63     20.00
    8.1838     29.50     29.43    -20.81     20.00
    8.1940     30.12     29.44    -20.21     20.00
    8.2041     29.67     29.46    -20.67     20.00
    8.2143     28.83     29.48    -21.53     20.00
    8.2244     29.90     29.49    -20.48     20.00
    8.2346     29.29     29.51    -21.10     20.00
    8.2448     29.64     29.53    -20.77     20.00
    8.2549     30.41     29.54    -20.02     20.00
    8.2651     30.21     29.56    -20.23     20.00
    8.2753     30.15     29.58    -20.31     20.00
    8.2854     30.04     29.59    -20.44     20.00
    8.2956     30.10     29.61    -20.40     20.00
    8.3058     29.15     29.63    -21.36     20.00
    8.3159     30.39     29.65    -20.14     20.00
    8.3261     31.23     29.66    -19.32     20.00
    8.3363     30.60     29.68    -19.96     20.00
    8.3464     30.16     29.70    -20.42     20.00
    8.3566     30.94     29.72    -19.66     20.00
    8.3667     30.82     29.73    -19.80     20.00
    8.3769     30.54     29.75    -20.09     20.00
    8.3871     30.73     29.77    -19.92     20.00
    8.3972     29.95     29.79    -20.72     20.00
    8.4074     31.11     29.80    -19.58     20.00
    8.4176     30.95     29.82    -19.75     20.00
    8.4277     30.01     29.84    -20.71     20.00
    8.4379     30.10     29.86    -20.64     20.00
    8.4481     31.19     29.87    -19.57     20.00
    8.4582     29.66     29.89    -21.12     20.00
    8.4684     30.88     29.91    -19.91     20.00
    8.4786     31.30     29.93    -19.51     20.00
    8.4887     30.51     29.95    -20.32     20.00
    8.4989     31.41     29.96    -19.44     20.00
    8.5091     30.79     29.98    -20.08     20.00
    8.5192     30.40     30.00    -20.49     20.00
    8.5294     31.01     30.02    -19.89     20.00
    8.5395     31.09     30.04    -19.83     20.00
    8.5497     29.60     30.06    -21.34     20.00
    8.5599     31.32     30.07    -19.64     20.00
    8.5700     30.91     30.09    -20.07     20.00
    8.5802     30.46     30.11    -20.54     20.00
    8.5904     30.57     30.13    -20.44     20.00
    8.6005     31.45     30.15    -19.58     20.00
    8.6107     30.68     30.17    -20.37     20.00
    8.6209     31.29     30.19    -19.78     20.00
    8.6310     30.70     30.21    -20.39     20.00
    8.6412     30.61     30.23    -20.50     20.00
    8.6514     31.47     30.24    -19.66     20.00
    8.6615     31.46     30.26    -19.69     20.00
    8.6717     30.53     30.28    -20.64     20.00
    8.6818     31.74     30.30    -19.45     20.00
    8.6920     30.77     30.32    -20.44     20.00
    8.7022     30.79     30.34    -20.43     20.00
    8.7123     31.68     30.36    -19.56     20.00
    8.7225     32.27     30.38    -18.99     20.00
    8.7327     32.28     30.40    -19.00     20.00
    8.7428     31.55     30.42    -19.75     20.00
    8.7530     30.96     30.44    -20.36     20.00
    8.7632     31.14     30.46    -20.20     20.00
    8.7733     31.85     30.48    -19.51     20.00
    8.7835     31.88     30.50    -19.50     20.00
    8.7937     30.69     30.52    -20.71     20.00
    8.8038     32.29     30.54    -19.13     20.00
    8.8140     32.32     30.56    -19.12     20.00
    8.8242     31.88     30.58    -19.58     20.00
    8.8343     31.88     30.60    -19.60     20.00
    8.8445     32.10     30.62    -19.40     20.00
    8.8546     31.65     30.64    -19.87     20.00
    8.8648     31.63     30.66    -19.91     20.00
    8.8750     32.13     30.68    -19.43     20.00
    8.8851     32.31     30.70    -19.27     20.00
    8.8953     31.98     30.72    -19.62     20.00
    8.9055     32.36     30.74    -19.26     20.00
    8.9156     30.97     30.76    -20.68     20.00
    8.9258     31.32     30.78    -20.35     20.00
    8.9360     31.76     30.80    -19.93     20.00
    8.9461     31.74     30.82    -19.97     20.00
    8.9563     31.84     30.84    -19.89     20.00
    8.9665     31.72     30.87    -20.03     20.00
    8.9766     31.69     30.89    -20.08     20.00
    8.9868     32.22     30.91    -19.57     20.00
    8.9969     32.03     30.93    -19.78     20.00
    9.0071     31.32     30.95    -20.51     20.00
    9.0173     32.07     30.97    -19.79     20.00
    9.0274     31.86     30.99    -20.02     20.00
    9.0376     32.37     31.02    -19.53     20.00
    9.0478     32.85     31.04    -19.07     20.00
    9.0579     32.85     31.06    -19.09     20.00
    9.0681     32.27     31.08    -19.69     20.00
    9.0783     32.46     31.10    -19.53     20.00
    9.0884     31.68     31.12    -20.33     20.00
    9.0986     32.21     31.15    -19.82     20.00
    9.1088     31.98     31.17    -20.07     20.00
    9.1189     32.66     31.19    -19.41     20.00
    9.1291     32.77     31.21    -19.33     20.00
    9.1393     32.36     31.23    -19.76     20.00
    9.1494     32.83     31.26    -19.31     20.00
    9.1596     33.07     31.28    -19.09     20.00
    9.1697     32.39     31.30    -19.80     20.00
    9.1799     33.02     31.32    -19.19     20.00
    9.1901     32.60     31.35    -19.63     20.00
    9.2002     32.96     31.37    -19.29     20.00
    9.2104     32.38     31.39    -19.90     20.00
    9.2206     32.15     31.42    -20.15     20.00
    9.2307     32.97     31.44    -19.35     20.00
    9.2409     32.15     31.46    -20.20     20.00
    9.2511     32.52     31.48    -19.85     20.00
    9.2612     33.30     31.51    -19.09     20.00
    9.2714     32.98     31.53    -19.43     20.00
    9.2816     32.14     31.55    -20.30     20.00
    9.2917     33.85     31.58    -18.61     20.00
    9.3019     33.10     31.60    -19.38     20.00
    9.3120     32.62     31.62    -19.89     20.00
    9.3222     33.43     31.65    -19.10     20.00
    9.3324     32.98     31.67    -19.58     20.00
    9.3425     33.15     31.70    -19.43     20.00
    9.3527     32.77     31.72    -19.83     20.00
    9.3629     32.84     31.74    -19.79     20.00
    9.3730     32.99     31.77    -19.66     20.00
    9.3832     33.01     31.79    -19.67     20.00
    9.3934     33.53     31.82    -19.17     20.00
    9.4035     33.44     31.84    -19.28     20.00
    9.4137     32.82     31.86    -19.93     20.00
    9.4239     34.34     31.89    -18.43     20.00
    9.4340     33.64     31.91    -19.16     20.00
    9.4442     33.32     31.94    -19.50     20.00
    9.4544     33.19     31.96    -19.66     20.00
    9.4645     33.40     31.99    -19.47     20.00
    9.4747     33.95     32.01    -18.95     20.00
    9.4848     32.77     32.04    -20.15     20.00
    9.4950     33.29     32.06    -19.66     20.00
    9.5052     33.59     32.09    -19.38     20.00
    9.5153     33.91     32.11    -19.09     20.00
    9.5255     33.52     32.14    -19.50     20.00
    9.5357     33.69     32.16    -19.36     20.00
    9.5458     33.66     32.19    -19.41     20.00
    9.5560     33.34     32.21    -19.76     20.00
    9.5662     33.27     32.24    -19.85     20.00
    9.5763     33.74     32.27    -19.41     20.00
    9.5865     33.16     32.29    -20.02     20.00
    9.5967     34.74     32.32    -18.46     20.00
    9.6068     34.18     32.34    -19.05     20.00
    9.6170     33.21     32.37    -20.04     20.00
    9.6271     33.24     32.40    -20.04     20.00
    9.6373     34.26     32.42    -19.05     20.00
    9.6475     33.52     32.45    -19.81     20.00
    9.6576     33.35     32.47    -20.01     20.00
    9.6678     33.95     32.50    -19.43     20.00
    9.6780     33.68     32.53    -19.73     20.00
    9.6881     33.62     32.55    -19.82     20.00
    9.6983     34.60     32.58    -18.86     20.00
    9.7085     33.91     32.61    -19.58     20.00
    9.7186     33.85     32.63    -19.67     20.00
    9.7288     33.85     32.66    -19.70     20.00
    9.7390     34.15     32.69    -19.42     20.00
    9.7491     34.84     32.72    -18.76     20.00
    9.7593     33.73     32.74    -19.90     20.00
    9.7694     34.27     32.77    -19.39     20.00
    9.7796     33.33     32.80    -20.35     20.00
    9.7898     34.02     32.83    -19.69     20.00
    9.7999     34.29     32.85    -19.45     20.00
    9.8101     34.84     32.88    -18.93     20.00
    9.8203     33.94     32.91    -19.85     20.00
    9.8304     34.38     32.94    -19.44     20.00
    9.8406     34.18     32.97    -19.67     20.00
    9.8508     34.10     32.99    -19.78     20.00
    9.8609     33.93     33.02    -19.98     20.00
    9.8711     33.83     33.05    -20.11     20.00
    9.8813     35.05     33.08    -18.91     20.00
    9.8914     33.60     33.11    -20.39     20.00
    9.9016     34.74     33.14    -19.28     20.00
    9.9118     34.60     33.17    -19.45     20.00
    9.9219     34.79     33.19    -19.29     20.00
    9.9321     34.21     33.22    -19.90     20.00
    9.9422     34.73     33.25    -19.41     20.00
    9.9524     34.95     33.28    -19.22     20.00
    9.9626     35.02     33.31    -19.18     20.00
    9.9727     35.02     33.34    -19.20     20.00
    9.9829     35.16     33.37    -19.09     20.00
    9.9931     34.70     33.40    -19.58     20.00
   10.0032     34.84     33.43    -19.47     20.00
   10.0134     33.60     33.46    -20.74     20.00
   10.0236     35.29     33.49    -19.08     20.00
   10.0337     34.71     33.52    -19.69     20.00
   10.0439     34.46     33.55    -19.97     20.00
   10.0541     35.23     33.58    -19.23     20.00
   10.0642     34.78     33.61    -19.71     20.00
   10.0744     34.73     33.64    -19.80     20.00
   10.0845     34.60     33.67    -19.96     20.00
   10.0947     35.21     33.70    -19.38     20.00
   10.1049     35.73     33.73    -18.89     20.00
   10.1150     34.66     33.76    -19.99     20.00
   10.1252     35.02     33.80    -19.66     20.00
   10.1354     34.99     33.83    -19.72     20.00
   10.1455     35.32     33.86    -19.42     20.00
   10.1557     35.13     33.89    -19.64     20.00
   10.1659     34.69     33.92    -20.11     20.00
   10.1760     35.63     33.95    -19.21     20.00
   10.1862     35.30     33.98    -19.57     20.00
   10.1964     34.14     34.02    -20.76     20.00
   10.2065     35.49     34.05    -19.44     20.00
   10.2167     34.79     34.08    -20.17     20.00
   10.2269     35.54     34.11    -19.46     20.00
   10.2370     34.96     34.14    -20.07     20.00
   10.2472     35.57     34.18    -19.49     20.00
   10.2573     35.41     34.21    -19.68     20.00
   10.2675     35.15     34.24    -19.98     20.00
   10.2777     35.64     34.27    -19.52     20.00
   10.2878     35.27     34.31    -19.92     20.00
   10.2980     35.12     34.34    -20.10     20.00
   10.3082     35.49     34.37    -19.77     20.00
   10.3183     36.10     34.41    -19.19     20.00
   10.3285     35.83     34.44    -19.49     20.00
   10.3387     35.62     34.47    -19.74     20.00
   10.3488     35.88     34.51    -19.51     20.00
   10.3590     35.68     34.54    -19.74     20.00
   10.3692     35.33     34.57    -20.13     20.00
   10.3793     35.34     34.61    -20.15     20.00
   10.3895     36.02     34.64    -19.51     20.00
   10.3996     35.48     34.68    -20.08     20.00
   10.4098     36.26     34.71    -19.33     20.00
   10.4200     35.66     34.75    -19.97     20.00
   10.4301     35.88     34.78    -19.78     20.00
   10.4403     35.99     34.81    -19.71     20.00
   10.4505     35.41     34.85    -20.32     20.00
   10.4606     36.42     34.88    -19.35     20.00
   10.4708     35.52     34.92    -20.28     20.00
   10.4810     35.93     34.95    -19.91     20.00
   10.4911     35.98     34.99    -19.89     20.00
   10.5013     35.74     35.02    -20.17     20.00
   10.5115     36.01     35.06    -19.93     20.00
   10.5216     35.03     35.10    -20.95     20.00
   10.5318     36.47     35.13    -19.55     20.00
   10.5420     37.01     35.17    -19.04     20.00
   10.5521     36.80     35.20    -19.29     20.00
   10.5623     36.69     35.24    -19.43     20.00
   10.5724     36.82     35.28    -19.34     20.00
   10.5826     37.40     35.31    -18.80     20.00
   10.5928     35.52     35.35    -20.71     20.00
   10.6029     36.98     35.39    -19.29     20.00
   10.6131     36.52     35.42    -19.79     20.00
   10.6233     36.32     35.46    -20.02     20.00
   10.6334     36.05     35.50    -20.33     20.00
   10.6436     37.13     35.53    -19.29     20.00
   10.6538     35.69     35.57    -20.77     20.00
   10.6639     37.24     35.61    -19.25     20.00
   10.6741     36.95     35.65    -19.58     20.00
   10.6843     36.53     35.68    -20.04     20.00
   10.6944     37.63     35.72    -18.98     20.00
   10.7046     36.71     35.76    -19.93     20.00
   10.7147     36.83     35.80    -19.85     20.00
   10.7249     37.27     35.84    -19.45     20.00
   10.7351     37.00     35.87    -19.76     20.00
   10.7452     37.60     35.91    -19.20     20.00
   10.7554     36.84     35.95    -20.00     20.00
   10.7656     36.92     35.99    -19.95     20.00
   10.7757     36.95     36.03    -19.96     20.00
   10.7859     36.63     36.07    -20.32     20.00
   10.7961     37.65     36.11    -19.34     20.00
   10.8062     37.75     36.15    -19.28     20.00
   10.8164     36.59     36.19    -20.48     20.00
   10.8266     37.36     36.23    -19.75     20.00
   10.8367     37.02     36.27    -20.13     20.00
   10.8469     37.82     36.31    -19.37     20.00
   10.8571     36.95     36.35    -20.28     20.00
   10.8672     36.97     36.39    -20.30     20.00
   10.8774     37.62     36.43    -19.69     20.00
   10.8875     37.34     36.47    -20.01     20.00
   10.8977     37.63     36.51    -19.76     20.00
   10.9079     37.54     36.55    -19.89     20.00
   10.9180     37.44     36.59    -20.03     20.00
   10.9282     37.77     36.63    -19.75     20.00
   10.9384     37.55     36.67    -20.01     20.00
   10.9485     37.07     36.71    -20.53     20.00
   10.9587     38.36     36.76    -19.28     20.00
   10.9689     37.70     36.80    -19.98     20.00
   10.9790     37.23     36.84    -20.49     20.00
   10.9892     37.96     36.88    -19.81     20.00
   10.9994     37.49     36.92    -20.32     20.00
   11.0095     37.24     36.97    -20.61     20.00
   11.0197     38.30     37.01    -19.59     20.00
   11.0298     37.61     37.05    -20.32     20.00
   11.0400     38.07     37.09    -19.91     20.00
   11.0502     38.48     37.14    -19.54     20.00
   11.0603     36.79     37.18    -21.27     20.00
   11.0705     37.69     37.22    -20.42     20.00
   11.0807     36.93     37.27    -21.22     20.00
   11.0908     37.43     37.31    -20.76     20.00
   11.1010     38.54     37.35    -19.70     20.00
   11.1112     38.16     37.40    -20.12     20.00
   11.1213     38.68     37.44    -19.65     20.00
   11.1315     38.22     37.49    -20.15     20.00
   11.1417     38.24     37.53    -20.17     20.00
   11.1518     38.03     37.57    -20.43     20.00
   11.1620     37.89     37.62    -20.61     20.00
   11.1722     37.62     37.66    -20.93     20.00
   11.1823     38.76     37.71    -19.83     20.00
   11.1925     38.65     37.75    -19.99     20.00
   11.2026     38.88     37.80    -19.80     20.00
   11.2128     38.13     37.85    -20.60     20.00
   11.2230     38.50     37.89    -20.27     20.00
   11.2331     37.62     37.94    -21.20     20.00
   11.2433     39.10     37.98    -19.77     20.00
   11.2535     38.35     38.03    -20.56     20.00
   11.2636     37.54     38.07    -21.42     20.00
   11.2738     39.29     38.12    -19.72     20.00
   11.2840     39.24     38.17    -19.81     20.00
   11.2941     38.02     38.21    -21.08     20.00
   11.3043     38.94     38.26    -20.21     20.00
   11.3145     38.43     38.31    -20.76     20.00
   11.3246     38.29     38.36    -20.95     20.00
   11.3348     39.76     38.40    -19.53     20.00
   11.3449     38.21     38.45    -21.12     20.00
   11.3551     39.71     38.50    -19.67     20.00
   11.3653     39.17     38.55    -20.26     20.00
   11.3754     38.86     38.59    -20.62     20.00
   11.3856     39.07     38.64    -20.46     20.00
   11.3958     39.48     38.69    -20.10     20.00
   11.4059     39.56     38.74    -20.06     20.00
   11.4161     39.17     38.79    -20.50     20.00
   11.4263     39.55     38.84    -20.17     20.00
   11.4364     39.20     38.89    -20.57     20.00
   11.4466     38.93     38.94    -20.89     20.00
   11.4568     38.28     38.99    -21.59     20.00
   11.4669     39.10     39.04    -20.82     20.00
   11.4771     39.00     39.09    -20.97     20.00
   11.4873     39.94     39.14    -20.08     20.00
   11.4974     38.86     39.19    -21.21     20.00
   11.5076     39.96     39.24    -20.16     20.00
   11.5177     39.86     39.29    -20.31     20.00
   11.5279     39.14     39.34    -21.08     20.00
   11.5381     38.94     39.39    -21.33     20.00
   11.5482     39.46     39.44    -20.86     20.00
   11.5584     39.73     39.49    -20.64     20.00
   11.5686     39.46     39.54    -20.97     20.00
   11.5787     39.16     39.59    -21.32     20.00
   11.5889     39.96     39.65    -20.57     20.00
   11.5991     39.98     39.70    -20.60     20.00
   11.6092     40.44     39.75    -20.19     20.00
   11.6194     39.65     39.80    -21.04     20.00
   11.6296     39.01     39.86    -21.73     20.00
   11.6397     40.10     39.91    -20.69     20.00
   11.6499     40.09     39.96    -20.75     20.00
   11.6600     41.20     40.01    -19.70     20.00
   11.6702     40.36     40.07    -20.59     20.00
   11.6804     40.35     40.12    -20.65     20.00
   11.6905     40.06     40.17    -21.00     20.00
   11.7007     41.45     40.23    -19.66     20.00
   11.7109     39.90     40.28    -21.27     20.00
   11.7210     40.35     40.34    -20.87     20.00
   11.7312     40.80     40.39    -20.48     20.00
   11.7414     40.48     40.45    -20.85     20.00
   11.7515     40.55     40.50    -20.83     20.00
   11.7617     39.96     40.56    -21.48     20.00
   11.7719     41.34     40.61    -20.15     20.00
   11.7820     40.77     40.67    -20.78     20.00
   11.7922     41.33     40.72    -20.28     20.00
   11.8023     40.76     40.78    -20.90     20.00
   11.8125     40.59     40.83    -21.13     20.00
   11.8227     41.14     40.89    -20.63     20.00
   11.8328     40.49     40.95    -21.34     20.00
   11.8430     40.27     41.00    -21.62     20.00
   11.8532     41.01     41.06    -20.93     20.00
   11.8633     41.43     41.12    -20.57     20.00
   11.8735     40.43     41.17    -21.63     20.00
   11.8837     41.01     41.23    -21.11     20.00
   11.8938     40.87     41.29    -21.30     20.00
   11.9040     40.63     41.35    -21.60     20.00
   11.9142     41.14     41.40    -21.15     20.00
   11.9243     41.91     41.46    -20.44     20.00
   11.9345     41.87     41.52    -20.53     20.00
   11.9447     41.30     41.58    -21.16     20.00
   11.9548     40.70     41.64    -21.82     20.00
   11.9650     41.81     41.70    -20.77     20.00
   11.9751     41.23     41.76    -21.41     20.00
   11.9853     41.80     41.82    -20.90     20.00
   11.9955     41.37     41.88    -21.39     20.00
   12.0056     41.62     41.93    -21.20     20.00
   12.0158     42.01     42.00    -20.87     20.00
   12.0260     41.91     42.06    -21.03     20.00
   12.0361     42.24     42.12    -20.76     20.00
   12.0463     42.56     42.18    -20.50     20.00
   12.0565     42.18     42.24    -20.94     20.00
   12.0666     42.21     42.30    -20.97     20.00
   12.0768     41.28     42.36    -21.96     20.00
   12.0870     42.32     42.42    -20.99     20.00
   12.0971     41.98     42.48    -21.39     20.00
   12.1073     42.34     42.54    -21.09     20.00
   12.1174     41.95     42.61    -21.54     20.00
   12.1276     42.85     42.67    -20.70     20.00
   12.1378     41.77     42.73    -21.85     20.00
   12.1479     42.54     42.79    -21.14     20.00
   12.1581     42.76     42.86    -20.98     20.00
   12.1683     42.88     42.92    -20.92     20.00
   12.1784     43.34     42.98    -20.53     20.00
   12.1886     43.32     43.05    -20.61     20.00
   12.1988     42.40     43.11    -21.60     20.00
   12.2089     42.80     43.18    -21.26     20.00
   12.2191     42.82     43.24    -21.30     20.00
   12.2293     44.02     43.30    -20.17     20.00
   12.2394     42.90     43.37    -21.35     20.00
   12.2496     41.74     43.43    -22.58     20.00
   12.2598     43.25     43.50    -21.13     20.00
   12.2699     42.63     43.56    -21.82     20.00
   12.2801     43.05     43.63    -21.46     20.00
   12.2902     42.13     43.70    -22.45     20.00
   12.3004     43.49     43.76    -21.16     20.00
   12.3106     43.19     43.83    -21.52     20.00
   12.3207     43.07     43.89    -21.71     20.00
   12.3309     43.49     43.96    -21.36     20.00
   12.3411     43.87     44.03    -21.04     20.00
   12.3512     42.65     44.10    -22.33     20.00
   12.3614     43.52     44.16    -21.53     20.00
   12.3716     44.11     44.23    -21.00     20.00
   12.3817     43.67     44.30    -21.51     20.00
   12.3919     44.78     44.37    -20.47     20.00
   12.4021     44.26     44.43    -21.06     20.00
   12.4122     43.71     44.50    -21.68     20.00
   12.4224     43.43     44.57    -22.03     20.00
   12.4325     44.46     44.64    -21.06     20.00
   12.4427     43.82     44.71    -21.77     20.00
   12.4529     43.45     44.78    -22.21     20.00
   12.4630     44.08     44.85    -21.65     20.00
   12.4732     44.58     44.92    -21.22     20.00
   12.4834     44.42     44.99    -21.45     20.00
   12.4935     43.93     45.06    -22.01     20.00
   12.5037     44.74     45.13    -21.27     20.00
   12.5139     44.26     45.20    -21.83     20.00
   12.5240     43.60     45.27    -22.56     20.00
   12.5342     44.71     45.34    -21.52     20.00
   12.5444     44.63     45.42    -21.67     20.00
   12.5545     44.92     45.49    -21.45     20.00
   12.5647     45.02     45.56    -21.42     20.00
   12.5749     45.77     45.63    -20.75     20.00
   12.5850     45.36     45.70    -21.23     20.00
   12.5952     45.51     45.78    -21.15     20.00
   12.6053     45.06     45.85    -21.67     20.00
   12.6155     45.81     45.92    -21.00     20.00
   12.6257     45.82     46.00    -21.06     20.00
   12.6358     45.61     46.07    -21.34     20.00
   12.6460     46.49     46.14    -20.54     20.00
   12.6562     45.09     46.22    -22.01     20.00
   12.6663     45.05     46.29    -22.13     20.00
   12.6765     46.21     46.37    -21.04     20.00
   12.6867     45.90     46.44    -21.43     20.00
   12.6968     45.94     46.52    -21.46     20.00
   12.7070     46.02     46.59    -21.46     20.00
   12.7172     46.26     46.67    -21.29     20.00
   12.7273     45.59     46.74    -22.04     20.00
   12.7375     45.96     46.82    -21.74     20.00
   12.7476     45.48     46.90    -22.30     20.00
   12.7578     47.46     46.97    -20.40     20.00
   12.7680     46.13     47.05    -21.80     20.00
   12.7781     45.05     47.13    -22.96     20.00
   12.7883     46.84     47.20    -21.25     20.00
   12.7985     47.02     47.28    -21.15     20.00
   12.8086     46.43     47.36    -21.81     20.00
   12.8188     47.02     47.44    -21.30     20.00
   12.8290     46.26     47.52    -22.14     20.00
   12.8391     47.02     47.60    -21.46     20.00
   12.8493     46.88     47.67    -21.68     20.00
   12.8595     47.17     47.75    -21.47     20.00
   12.8696     46.51     47.83    -22.21     20.00
   12.8798     46.87     47.91    -21.93     20.00
   12.8900     46.24     47.99    -22.64     20.00
   12.9001     45.70     48.07    -23.26     20.00
   12.9103     47.68     48.15    -21.36     20.00
   12.9204     47.26     48.23    -21.86     20.00
   12.9306     47.47     48.32    -21.73     20.00
   12.9408     47.51     48.40    -21.77     20.00
   12.9509     46.32     48.48    -23.04     20.00
   12.9611     46.10     48.56    -23.34     20.00
   12.9713     47.14     48.64    -22.39     20.00
   12.9814     47.82     48.72    -21.79     20.00
   12.9916     48.10     48.81    -21.59     20.00
   13.0018     47.36     48.89    -22.41     20.00
   13.0119     48.66     48.97    -21.20     20.00
   13.0221     48.27     49.06    -21.67     20.00
   13.0323     49.59     49.14    -20.43     20.00
   13.0424     46.98     49.22    -23.13     20.00
   13.0526     47.74     49.31    -22.45     20.00
   13.0627     48.14     49.39    -22.14     20.00
   13.0729     48.40     49.48    -21.96     20.00
   13.0831     47.48     49.56    -22.97     20.00
   13.0932     48.76     49.65    -21.77     20.00
   13.1034     47.33     49.73    -23.29     20.00
   13.1136     48.82     49.82    -21.88     20.00
   13.1237     48.39     49.90    -22.40     20.00
   13.1339     48.27     49.99    -22.60     20.00
   13.1441     48.86     50.08    -22.10     20.00
   13.1542     48.82     50.16    -22.23     20.00
   13.1644     50.12     50.25    -21.01     20.00
   13.1746     49.34     50.34    -21.88     20.00
   13.1847     48.86     50.42    -22.45     20.00
   13.1949     49.60     50.51    -21.80     20.00
   13.2051     48.75     50.60    -22.74     20.00
   13.2152     48.13     50.69    -23.44     20.00
   13.2254     50.04     50.78    -21.62     20.00
   13.2355     49.20     50.87    -22.55     20.00
   13.2457     50.10     50.96    -21.74     20.00
   13.2559     49.77     51.05    -22.16     20.00
   13.2660     50.29     51.13    -21.73     20.00
   13.2762     48.95     51.23    -23.16     20.00
   13.2864     50.51     51.32    -21.69     20.00
   13.2965     50.64     51.41    -21.65     20.00
   13.3067     49.85     51.50    -22.53     20.00
   13.3169     50.03     51.59    -22.44     20.00
   13.3270     50.33     51.68    -22.23     20.00
   13.3372     49.74     51.77    -22.92     20.00
   13.3474     51.21     51.86    -21.54     20.00
   13.3575     50.68     51.96    -22.16     20.00
   13.3677     49.92     52.05    -23.01     20.00
   13.3778     51.41     52.14    -21.61     20.00
   13.3880     50.65     52.23    -22.47     20.00
   13.3982     51.00     52.33    -22.21     20.00
   13.4083     51.45     52.42    -21.85     20.00
   13.4185     51.42     52.51    -21.98     20.00
   13.4287     51.83     52.61    -21.66     20.00
   13.4388     50.07     52.70    -23.52     20.00
   13.4490     51.24     52.80    -22.44     20.00
   13.4592     50.98     52.89    -22.80     20.00
   13.4693     51.24     52.99    -22.63     20.00
   13.4795     51.28     53.08    -22.69     20.00
   13.4897     53.01     53.18    -21.05     20.00
   13.4998     52.22     53.28    -21.94     20.00
   13.5100     51.22     53.37    -23.04     20.00
   13.5201     52.54     53.47    -21.81     20.00
   13.5303     52.64     53.57    -21.81     20.00
   13.5405     52.24     53.66    -22.31     20.00
   13.5506     52.70     53.76    -21.95     20.00
   13.5608     53.05     53.86    -21.69     20.00
   13.5710     52.19     53.96    -22.65     20.00
   13.5811     53.15     54.06    -21.79     20.00
   13.5913     53.20     54.16    -21.84     20.00
   13.6015     54.40     54.25    -20.74     20.00
   13.6116     52.90     54.35    -22.34     20.00
   13.6218     54.27     54.45    -21.07     20.00
   13.6320     52.99     54.55    -22.45     20.00
   13.6421     53.91     54.65    -21.63     20.00
   13.6523     53.27     54.75    -22.37     20.00
   13.6625     52.63     54.86    -23.11     20.00
   13.6726     52.92     54.96    -22.92     20.00
   13.6828     53.07     55.06    -22.87     20.00
   13.6929     53.09     55.16    -22.95     20.00
   13.7031     53.84     55.26    -22.31     20.00
   13.7133     53.10     55.36    -23.15     20.00
   13.7234     53.72     55.47    -22.63     20.00
   13.7336     54.95     55.57    -21.50     20.00
   13.7438     54.40     55.67    -22.16     20.00
   13.7539     54.94     55.78    -21.72     20.00
   13.7641     55.17     55.88    -21.59     20.00
   13.7743     53.86     55.98    -23.01     20.00
   13.7844     55.52     56.09    -21.45     20.00
   13.7946     54.99     56.19    -22.09     20.00
   13.8048     54.87     56.30    -22.31     20.00
   13.8149     54.79     56.40    -22.50     20.00
   13.8251     55.23     56.51    -22.16     20.00
   13.8352     55.13     56.61    -22.37     20.00
   13.8454     55.01     56.72    -22.59     20.00
   13.8556     55.61     56.83    -22.10     20.00
   13.8657     54.98     56.93    -22.84     20.00
   13.8759     54.64     57.04    -23.29     20.00
   13.8861     55.59     57.15    -22.44     20.00
   13.8962     55.33     57.26    -22.81     20.00
   13.9064     56.19     57.36    -22.06     20.00
   13.9166     56.46     57.47    -21.90     20.00
   13.9267     54.91     57.58    -23.56     20.00
   13.9369     57.20     57.69    -21.37     20.00
   13.9471     57.51     57.80    -21.17     20.00
   13.9572     56.07     57.91    -22.72     20.00
   13.9674     56.04     58.02    -22.86     20.00
   13.9776     56.49     58.13    -22.52     20.00
   13.9877     56.80     58.24    -22.32     20.00
   13.9979     57.59     58.35    -21.64     20.00
   14.0080     56.15     58.46    -23.19     20.00
   14.0182     56.65     58.57    -22.81     20.00
   14.0284     57.47     58.68    -22.10     20.00
   14.0385     57.24     58.80    -22.44     20.00
   14.0487     55.91     58.91    -23.88     20.00
   14.0589     56.95     59.02    -22.96     20.00
   14.0690     58.08     59.13    -21.94     20.00
   14.0792     58.27     59.25    -21.86     20.00
   14.0894     58.30     59.36    -21.94     20.00
   14.0995     58.68     59.47    -21.68     20.00
   14.1097     57.19     59.59    -23.28     20.00
   14.1199     58.31     59.70    -22.28     20.00
   14.1300     57.62     59.82    -23.08     20.00
   14.1402     58.82     59.93    -22.00     20.00
   14.1503     58.43     60.05    -22.50     20.00
   14.1605     57.70     60.16    -23.35     20.00
   14.1707     59.07     60.28    -22.09     20.00
   14.1808     58.26     60.40    -23.02     20.00
   14.1910     58.49     60.51    -22.91     20.00
   14.2012     60.04     60.63    -21.47     20.00
   14.2113     59.13     60.75    -22.50     20.00
   14.2215     59.61     60.86    -22.14     20.00
   14.2317     59.21     60.98    -22.66     20.00
   14.2418     60.71     61.10    -21.27     20.00
   14.2520     59.98     61.22    -22.12     20.00
   14.2622     60.39     61.34    -21.83     20.00
   14.2723     60.00     61.46    -22.34     20.00
   14.2825     60.40     61.58    -22.06     20.00
   14.2927     59.95     61.70    -22.63     20.00
   14.3028     59.98     61.81    -22.72     20.00
   14.3130     60.23     61.94    -22.59     20.00
   14.3231     59.22     62.06    -23.72     20.00
   14.3333     60.54     62.18    -22.52     20.00
   14.3435     60.85     62.30    -22.33     20.00
   14.3536     60.46     62.42    -22.84     20.00
   14.3638     61.45     62.54    -21.98     20.00
   14.3740     61.49     62.66    -22.06     20.00
   14.3841     60.59     62.79    -23.08     20.00
   14.3943     60.65     62.91    -23.14     20.00
   14.4045     61.65     63.03    -22.27     20.00
   14.4146     61.56     63.16    -22.48     20.00
   14.4248     61.22     63.28    -22.94     20.00
   14.4350     62.16     63.40    -22.13     20.00
   14.4451     61.66     63.53    -22.75     20.00
   14.4553     62.01     63.65    -22.53     20.00
   14.4654     62.83     63.78    -21.83     20.00
   14.4756     62.49     63.90    -22.30     20.00
   14.4858     61.93     64.03    -22.98     20.00
   14.4959     62.54     64.15    -22.50     20.00
   14.5061     62.34     64.28    -22.83     20.00
   14.5163     63.14     64.41    -22.15     20.00
   14.5264     64.21     64.53    -21.21     20.00
   14.5366     62.33     64.66    -23.22     20.00
   14.5468     62.60     64.79    -23.07     20.00
   14.5569     64.15     64.92    -21.65     20.00
   14.5671     64.11     65.05    -21.82     20.00
   14.5773     63.72     65.18    -22.34     20.00
   14.5874     63.20     65.30    -22.99     20.00
   14.5976     63.80     65.43    -22.52     20.00
   14.6078     63.70     65.56    -22.75     20.00
   14.6179     63.86     65.69    -22.72     20.00
   14.6281     64.79     65.82    -21.92     20.00
   14.6382     65.88     65.95    -20.96     20.00
   14.6484     64.27     66.08    -22.70     20.00
   14.6586     64.90     66.22    -22.20     20.00
   14.6687     64.12     66.35    -23.11     20.00
   14.6789     66.18     66.48    -21.18     20.00
   14.6891     65.01     66.61    -22.48     20.00
   14.6992     65.13     66.74    -22.50     20.00
   14.7094     65.09     66.88    -22.67     20.00
   14.7196     65.55     67.01    -22.34     20.00
   14.7297     66.05     67.14    -21.98     20.00
   14.7399     65.78     67.28    -22.38     20.00
   14.7501     67.16     67.41    -21.13     20.00
   14.7602     66.78     67.54    -21.65     20.00
   14.7704     65.99     67.68    -22.57     20.00
   14.7805     65.87     67.81    -22.83     20.00
   14.7907     66.43     67.95    -22.40     20.00
   14.8009     66.52     68.09    -22.45     20.00
   14.8110     67.57     68.22    -21.53     20.00
   14.8212     67.40     68.36    -21.84     20.00
   14.8314     67.02     68.49    -22.36     20.00
   14.8415     67.01     68.63    -22.50     20.00
   14.8517     66.74     68.77    -22.91     20.00
   14.8619     66.99     68.91    -22.80     20.00
   14.8720     68.28     69.04    -21.65     20.00
   14.8822     67.34     69.18    -22.73     20.00
   14.8924     69.23     69.32    -20.97     20.00
   14.9025     67.87     69.46    -22.47     20.00
   14.9127     67.29     69.60    -23.19     20.00
   14.9229     68.64     69.74    -21.98     20.00
   14.9330     68.79     69.88    -21.97     20.00
   14.9432     67.10     70.02    -23.80     20.00
   14.9533     68.66     70.16    -22.38     20.00
   14.9635     68.77     70.30    -22.41     20.00
   14.9737     69.52     70.44    -21.80     20.00
   14.9838     69.57     70.58    -21.90     20.00
   14.9940     69.98     70.72    -21.63     20.00
   15.0042     69.73     70.87    -22.02     20.00
   15.0143     69.95     71.01    -21.94     20.00
   15.0245     71.34     71.15    -20.69     20.00
   15.0347     71.53     71.29    -20.65     20.00
   15.0448     71.22     71.44    -21.10     20.00
   15.0550     70.41     71.58    -22.06     20.00
   15.0652     71.68     71.73    -20.93     20.00
   15.0753     71.36     71.87    -21.39     20.00
   15.0855     71.25     72.01    -21.65     20.00
   15.0956     71.58     72.16    -21.46     20.00
   15.1058     70.92     72.30    -22.27     20.00
   15.1160     70.87     72.45    -22.46     20.00
   15.1261     70.71     72.60    -22.77     20.00
   15.1363     72.03     72.74    -21.60     20.00
   15.1465     72.35     72.89    -21.42     20.00
   15.1566     72.07     73.04    -21.85     20.00
   15.1668     72.95     73.18    -21.12     20.00
   15.1770     71.01     73.33    -23.21     20.00
   15.1871     72.04     73.48    -22.32     20.00
   15.1973     70.68     73.63    -23.83     20.00
   15.2075     72.80     73.78    -21.86     20.00
   15.2176     73.01     73.92    -21.80     20.00
   15.2278     73.03     74.07    -21.93     20.00
   15.2380     73.43     74.22    -21.68     20.00
   15.2481     72.96     74.37    -22.30     20.00
   15.2583     74.17     74.52    -21.24     20.00
   15.2684     72.77     74.67    -22.79     20.00
   15.2786     72.46     74.82    -23.25     20.00
   15.2888     74.56     74.98    -21.30     20.00
   15.2989     72.93     75.13    -23.08     20.00
   15.3091     75.13     75.28    -21.03     20.00
   15.3193     72.88     75.43    -23.44     20.00
   15.3294     74.96     75.58    -21.51     20.00
   15.3396     76.18     75.74    -20.44     20.00
   15.3498     74.61     75.89    -22.16     20.00
   15.3599     75.88     76.04    -21.05     20.00
   15.3701     76.13     76.20    -20.95     20.00
   15.3803     75.38     76.35    -21.86     20.00
   15.3904     76.56     76.51    -20.83     20.00
   15.4006     75.15     76.66    -22.39     20.00
   15.4107     76.38     76.82    -21.32     20.00
   15.4209     75.68     76.97    -22.18     20.00
   15.4311     77.35     77.13    -20.66     20.00
   15.4412     76.70     77.28    -21.47     20.00
   15.4514     76.80     77.44    -21.52     20.00
   15.4616     76.46     77.60    -22.02     20.00
   15.4717     78.10     77.75    -20.54     20.00
   15.4819     76.56     77.91    -22.23     20.00
   15.4921     76.73     78.07    -22.22     20.00
   15.5022     76.50     78.23    -22.61     20.00
   15.5124     77.98     78.38    -21.29     20.00
   15.5226     77.91     78.54    -21.52     20.00
   15.5327     79.25     78.70    -20.34     20.00
   15.5429     79.55     78.86    -20.20     20.00
   15.5530     78.16     79.02    -21.74     20.00
   15.5632     78.18     79.18    -21.88     20.00
   15.5734     79.51     79.34    -20.72     20.00
   15.5835     78.40     79.50    -21.99     20.00
   15.5937     79.85     79.66    -20.70     20.00
   15.6039     79.11     79.82    -21.60     20.00
   15.6140     79.02     79.98    -21.85     20.00
   15.6242     80.07     80.15    -20.96     20.00
   15.6344     78.68     80.31    -22.51     20.00
   15.6445     80.51     80.47    -20.85     20.00
   15.6547     79.74     80.64    -21.78     20.00
   15.6649     80.79     80.80    -20.89     20.00
   15.6750     80.14     80.96    -21.71     20.00
   15.6852     81.00     81.13    -21.01     20.00
   15.6954     81.07     81.29    -21.10     20.00
   15.7055     82.12     81.45    -20.22     20.00
   15.7157     81.32     81.62    -21.18     20.00
   15.7258     80.97     81.78    -21.70     20.00
   15.7360     81.60     81.95    -21.23     20.00
   15.7462     81.50     82.12    -21.50     20.00
   15.7563     82.72     82.28    -20.44     20.00
   15.7665     83.16     82.45    -20.17     20.00
   15.7767     82.93     82.62    -20.57     20.00
   15.7868     82.47     82.78    -21.20     20.00
   15.7970     82.77     82.95    -21.06     20.00
   15.8072     83.32     83.12    -20.68     20.00
   15.8173     82.39     83.28    -21.78     20.00
   15.8275     83.51     83.45    -20.83     20.00
   15.8377     84.58     83.62    -19.93     20.00
   15.8478     84.35     83.79    -20.33     20.00
   15.8580     83.59     83.96    -21.26     20.00
   15.8681     84.82     84.13    -20.19     20.00
   15.8783     84.17     84.30    -21.01     20.00
   15.8885     84.26     84.47    -21.10     20.00
   15.8986     84.15     84.64    -21.37     20.00
   15.9088     83.68     84.81    -22.02     20.00
   15.9190     85.64     84.98    -20.23     20.00
   15.9291     84.93     85.16    -21.11     20.00
   15.9393     86.91     85.33    -19.30     20.00
   15.9495     83.99     85.50    -22.39     20.00
   15.9596     86.55     85.67    -20.01     20.00
   15.9698     85.15     85.85    -21.58     20.00
   15.9800     86.99     86.02    -19.91     20.00
   15.9901     86.60     86.19    -20.48     20.00
   16.0003     88.31     86.37    -18.94     20.00
   16.0105     87.00     86.54    -20.43     20.00
   16.0206     87.99     86.72    -19.61     20.00
   16.0308     85.57     86.89    -22.21     20.00
   16.0409     88.84     87.07    -19.11     20.00
   16.0511     87.45     87.24    -20.68     20.00
   16.0613     88.80     87.42    -19.50     20.00
   16.0714     89.36     87.59    -19.12     20.00
   16.0816     89.24     87.77    -19.42     20.00
   16.0918     88.97     87.95    -19.86     20.00
   16.1019     88.76     88.13    -20.25     20.00
   16.1121     89.81     88.30    -19.38     20.00
   16.1223     90.25     88.48    -19.12     20.00
   16.1324     89.35     88.66    -20.19     20.00
   16.1426     90.19     88.84    -19.53     20.00
   16.1528     88.75     89.02    -21.15     20.00
   16.1629     89.34     89.20    -20.74     20.00
   16.1731     90.32     89.38    -19.94     20.00
   16.1832     91.46     89.56    -18.98     20.00
   16.1934     90.45     89.74    -20.17     20.00
   16.2036     91.37     89.92    -19.43     20.00
   16.2137     91.24     90.10    -19.74     20.00
   16.2239     92.67     90.28    -18.50     20.00
   16.2341     92.32     90.46    -19.03     20.00
   16.2442     91.70     90.64    -19.83     20.00
   16.2544     91.49     90.83    -20.22     20.00
   16.2646     91.40     91.01    -20.50     20.00
   16.2747     92.07     91.19    -20.01     20.00
   16.2849     91.61     91.38    -20.65     20.00
   16.2951     92.40     91.56    -20.05     20.00
   16.3052     92.15     91.75    -20.48     20.00
   16.3154     92.53     91.93    -20.29     20.00
   16.3256     93.56     92.12    -19.44     20.00
   16.3357     93.56     92.30    -19.63     20.00
   16.3459     94.94     92.49    -18.43     20.00
   16.3560     94.55     92.67    -19.01     20.00
   16.3662     94.63     92.86    -19.11     20.00
   16.3764     95.65     93.05    -18.28     20.00
   16.3865     94.04     93.23    -20.08     20.00
   16.3967     93.99     93.42    -20.32     20.00
   16.4069     95.21     93.61    -19.29     20.00
   16.4170     96.53     93.80    -18.15     20.00
   16.4272     96.48     93.99    -18.39     20.00
   16.4374     95.64     94.18    -19.42     20.00
   16.4475     97.08     94.37    -18.17     20.00
   16.4577     94.01     94.56    -21.43     20.00
   16.4679     95.73     94.75    -19.90     20.00
   16.4780     94.82     94.94    -21.00     20.00
   16.4882     97.40     95.13    -18.61     20.00
   16.4983     97.39     95.32    -18.82     20.00
   16.5085     97.52     95.51    -18.88     20.00
   16.5187     97.47     95.71    -19.12     20.00
   16.5288     99.45     95.90    -17.33     20.00
   16.5390     98.09     96.09    -18.89     20.00
   16.5492     96.70     96.29    -20.47     20.00
   16.5593     98.91     96.48    -18.45     20.00
   16.5695     98.53     96.68    -19.03     20.00
   16.5797     98.48     96.87    -19.28     20.00
   16.5898     99.47     97.07    -18.48     20.00
   16.6000    100.34     97.26    -17.81     20.00
   16.6102     99.34     97.46    -19.00     20.00
   16.6203    100.66     97.65    -17.88     20.00
   16.6305    101.73     97.85    -17.01     20.00
   16.6407    100.93     98.05    -18.01     20.00
   16.6508    100.55     98.25    -18.58     20.00
   16.6610    102.17     98.45    -17.16     20.00
   16.6711    100.74     98.65    -18.79     20.00
   16.6813    101.72     98.85    -18.01     20.00
   16.6915    102.80     99.05    -17.13     20.00
   16.7016    102.63     99.25    -17.50     20.00
   16.7118    101.48     99.45    -18.85     20.00
   16.7220    103.04     99.65    -17.49     20.00
   16.7321    103.95     99.85    -16.79     20.00
   16.7423    102.82    100.05    -18.12     20.00
   16.7525    104.65    100.26    -16.49     20.00
   16.7626    103.90    100.46    -17.45     20.00
   16.7728    102.29    100.67    -19.26     20.00
   16.7830    105.83    100.87    -15.93     20.00
   16.7931    104.73    101.08    -17.23     20.00
   16.8033    104.85    101.28    -17.32     20.00
   16.8134    106.16    101.49    -16.21     20.00
   16.8236    105.23    101.70    -17.35     20.00
   16.8338    106.41    101.90    -16.38     20.00
   16.8439    105.48    102.11    -17.52     20.00
   16.8541    105.78    102.32    -17.42     20.00
   16.8643    104.35    102.53    -19.07     20.00
   16.8744    108.33    102.74    -15.29     20.00
   16.8846    105.52    102.95    -18.32     20.00
   16.8948    106.29    103.16    -17.76     20.00
   16.9049    106.55    103.37    -17.71     20.00
   16.9151    106.54    103.59    -17.93     20.00
   16.9253    107.46    103.80    -17.23     20.00
   16.9354    106.99    104.01    -17.91     20.00
   16.9456    109.09    104.23    -16.02     20.00
   16.9558    109.25    104.45    -16.08     20.00
   16.9659    109.25    104.66    -16.30     20.00
   16.9761    106.81    104.88    -18.95     20.00
   16.9862    108.18    105.10    -17.80     20.00
   16.9964    108.88    105.32    -17.32     20.00
   17.0066    108.34    105.54    -18.08     20.00
   17.0167    109.53    105.75    -17.11     20.00
   17.0269    109.20    105.98    -17.66     20.00
   17.0371    108.07    106.20    -19.01     20.00
   17.0472    110.59    106.42    -16.71     20.00
   17.0574    109.82    106.64    -17.71     20.00
   17.0676    110.01    106.87    -17.74     20.00
   17.0777    110.02    107.09    -17.96     20.00
   17.0879    111.18    107.32    -17.03     20.00
   17.0981    110.50    107.55    -17.93     20.00
   17.1082    110.60    107.78    -18.06     20.00
   17.1184    111.27    108.01    -17.62     20.00
   17.1285    111.02    108.24    -18.10     20.00
   17.1387    108.57    108.47    -20.78     20.00
   17.1489    112.22    108.70    -17.36     20.00
   17.1590    111.25    108.93    -18.57     20.00
   17.1692    110.12    109.17    -19.93     20.00
   17.1794    111.84    109.40    -18.45     20.00
   17.1895    112.85    109.64    -17.67     20.00
   17.1997    112.56    109.88    -18.20     20.00
   17.2099    113.10    110.12    -17.90     20.00
   17.2200    111.02    110.36    -20.22     20.00
   17.2302    113.54    110.60    -17.95     20.00
   17.2404    114.73    110.85    -17.00     20.00
   17.2505    113.98    111.09    -17.99     20.00
   17.2607    113.71    111.34    -18.51     20.00
   17.2709    114.01    111.59    -18.46     20.00
   17.2810    112.54    111.83    -20.18     20.00
   17.2912    114.71    112.09    -18.26     20.00
   17.3013    115.32    112.34    -17.90     20.00
   17.3115    116.20    112.59    -17.28     20.00
   17.3217    115.82    112.85    -17.91     20.00
   17.3318    117.77    113.11    -16.22     20.00
   17.3420    116.94    113.37    -17.31     20.00
   17.3522    115.77    113.63    -18.74     20.00
   17.3623    117.00    113.89    -17.78     20.00
   17.3725    116.45    114.16    -18.59     20.00
   17.3827    116.11    114.43    -19.20     20.00
   17.3928    116.96    114.70    -18.62     20.00
   17.4030    116.20    114.97    -19.66     20.00
   17.4132    116.30    115.25    -19.83     20.00
   17.4233    120.57    115.52    -15.84     20.00
   17.4335    117.40    115.80    -19.29     20.00
   17.4436    119.99    116.09    -16.98     20.00
   17.4538    119.80    116.37    -17.46     20.00
   17.4640    119.40    116.66    -18.15     20.00
   17.4741    120.80    116.95    -17.04     20.00
   17.4843    120.28    117.25    -17.85     20.00
   17.4945    120.69    117.55    -17.74     20.00
   17.5046    120.07    117.85    -18.66     20.00
   17.5148    121.33    118.16    -17.71     20.00
   17.5250    119.44    118.47    -19.91     20.00
   17.5351    120.66    118.78    -19.00     20.00
   17.5453    120.94    119.10    -19.04     20.00
   17.5555    120.48    119.42    -19.83     20.00
   17.5656    120.90    119.75    -19.73     20.00
   17.5758    124.91    120.08    -16.05     20.00
   17.5859    122.48    120.42    -18.82     20.00
   17.5961    122.90    120.76    -18.74     20.00
   17.6063    124.52    121.11    -17.47     20.00
   17.6164    124.45    121.46    -17.89     20.00
   17.6266    123.99    121.82    -18.71     20.00
   17.6368    124.95    122.19    -18.12     20.00
   17.6469    125.77    122.56    -17.67     20.00
   17.6571    125.63    122.94    -18.19     20.00
   17.6673    126.94    123.33    -17.27     20.00
   17.6774    125.85    123.72    -18.76     20.00
   17.6876    126.03    124.13    -18.98     20.00
   17.6978    128.52    124.54    -16.90     20.00
   17.7079    129.23    124.96    -16.61     20.00
   17.7181    126.62    125.39    -19.65     20.00
   17.7283    128.24    125.83    -18.47     20.00
   17.7384    127.68    126.28    -19.48     20.00
   17.7486    128.94    126.74    -18.68     20.00
   17.7587    129.76    127.21    -18.33     20.00
   17.7689    129.71    127.69    -18.86     20.00
   17.7791    130.46    128.19    -18.61     20.00
   17.7892    131.38    128.69    -18.20     20.00
   17.7994    131.89    129.21    -18.21     20.00
   17.8096    133.05    129.75    -17.59     20.00
   17.8197    132.21    130.30    -18.97     20.00
   17.8299    133.82    130.86    -17.93     20.00
   17.8401    134.18    131.45    -18.15     20.00
   17.8502    134.79    132.04    -18.13     20.00
   17.8604    135.91    132.65    -17.63     20.00
   17.8706    132.94    133.29    -21.23     20.00
   17.8807    135.28    133.93    -19.54     20.00
   17.8909    135.80    134.60    -19.69     20.00
   17.9010    136.82    135.28    -19.35     20.00
   17.9112    138.68    136.00    -18.20     20.00
   17.9214    137.24    136.73    -20.37     20.00
   17.9315    138.71    137.47    -19.65     20.00
   17.9417    140.19    138.25    -18.94     20.00
   17.9519    140.02    139.05    -19.91     20.00
   17.9620    139.30    139.87    -21.45     20.00
   17.9722    142.04    140.71    -19.56     20.00
   17.9824    144.23    141.59    -18.24     20.00
   17.9925    144.57    142.48    -18.80     20.00
   18.0027    145.10    143.41    -19.19     20.00
   18.0129    146.43    144.37    -18.82     20.00
   18.0230    146.88    145.34    -19.35     20.00
   18.0332    148.45    146.36    -18.79     20.00
   18.0434    147.92    147.40    -20.36     20.00
   18.0535    147.99    148.46    -21.36     20.00
   18.0637    150.77    149.57    -19.69     20.00
   18.0738    151.66    150.70    -19.92     20.00
   18.0840    150.98    151.87    -21.78     20.00
   18.0942    153.33    153.08    -20.63     20.00
   18.1043    153.66    154.30    -21.53     20.00
   18.1145    155.53    155.58    -20.93     20.00
   18.1247    158.29    156.88    -19.48     20.00
   18.1348    160.25    158.22    -18.85     20.00
   18.1450    156.30    159.60    -24.18     20.00
   18.1552    160.38    161.01    -21.51     20.00
   18.1653    160.42    162.45    -22.91     20.00
   18.1755    161.64    163.94    -23.18     20.00
   18.1857    163.20    165.46    -23.15     20.00
   18.1958    164.26    167.01    -23.64     20.00
   18.2060    165.16    168.61    -24.34     20.00
   18.2161    171.79    170.23    -19.33     20.00
   18.2263    169.48    171.91    -23.31     20.00
   18.2365    171.89    173.62    -22.61     20.00
   18.2466    175.99    175.34    -20.24     20.00
   18.2568    175.20    177.13    -22.81     20.00
   18.2670    176.28    178.94    -23.55     20.00
   18.2771    180.98    180.78    -20.68     20.00
   18.2873    181.24    182.66    -22.31     20.00
   18.2975    179.76    184.58    -25.70     20.00
   18.3076    186.63    186.51    -20.76     20.00
   18.3178    186.39    188.49    -22.98     20.00
   18.3280    187.30    190.50    -24.08     20.00
   18.3381    191.92    192.51    -21.48     20.00
   18.3483    191.85    194.57    -23.60     20.00
   18.3585    193.91    196.65    -23.63     20.00
   18.3686    198.34    198.73    -21.28     20.00
   18.3788    195.88    200.85    -25.86     20.00
   18.3889    200.10    202.96    -23.75     20.00
   18.3991    205.07    205.11    -20.92     20.00
   18.4093    206.73    207.26    -21.42     20.00
   18.4194    206.96    209.40    -23.32     20.00
   18.4296    212.28    211.55    -20.15     20.00
   18.4398    214.35    213.70    -20.23     20.00
   18.4499    212.17    215.82    -24.53     20.00
   18.4601    218.34    217.94    -20.49     20.00
   18.4703    220.17    220.05    -20.76     20.00
   18.4804    220.26    222.10    -22.73     20.00
   18.4906    223.65    224.15    -21.38     20.00
   18.5008    226.32    226.15    -20.71     20.00
   18.5109    224.41    228.09    -24.56     20.00
   18.5211    230.49    229.99    -20.39     20.00
   18.5312    230.74    231.82    -21.96     20.00
   18.5414    232.52    233.59    -21.96     20.00
   18.5516    232.69    235.29    -23.49     20.00
   18.5617    236.42    236.89    -21.36     20.00
   18.5719    239.99    238.42    -19.31     20.00
   18.5821    237.65    239.85    -23.08     20.00
   18.5922    239.51    241.16    -22.53     20.00
   18.6024    241.83    242.37    -21.42     20.00
   18.6126    242.60    243.46    -21.75     20.00
   18.6227    243.74    244.42    -21.57     20.00
   18.6329    245.32    245.26    -20.83     20.00
   18.6431    244.77    245.97    -22.08     20.00
   18.6532    246.51    246.53    -20.91     20.00
   18.6634    246.43    246.96    -21.42     20.00
   18.6736    246.81    247.25    -21.32     20.00
   18.6837    248.37    247.39    -19.90     20.00
   18.6939    245.75    247.39    -22.52     20.00
   18.7040    247.46    247.25    -20.67     20.00
   18.7142    249.98    246.96    -17.86     20.00
   18.7244    246.07    246.53    -21.35     20.00
   18.7345    247.16    245.98    -19.70     20.00
   18.7447    249.10    245.28    -17.07     20.00
   18.7549    246.21    244.46    -19.14     20.00
   18.7650    246.80    243.53    -17.61     20.00
   18.7752    242.71    242.47    -20.64     20.00
   18.7854    241.47    241.30    -20.71     20.00
   18.7955    239.55    240.04    -21.37     20.00
   18.8057    238.94    238.67    -20.61     20.00
   18.8159    240.85    237.21    -17.25     20.00
   18.8260    239.52    235.69    -17.05     20.00
   18.8362    235.66    234.08    -19.30     20.00
   18.8463    234.04    232.42    -19.26     20.00
   18.8565    233.32    230.68    -18.25     20.00
   18.8667    230.63    228.90    -19.15     20.00
   18.8768    229.54    227.08    -18.43     20.00
   18.8870    226.45    225.22    -19.65     20.00
   18.8972    227.58    223.32    -16.62     20.00
   18.9073    221.70    221.41    -20.59     20.00
   18.9175    221.67    219.47    -18.68     20.00
   18.9277    220.04    217.51    -18.35     20.00
   18.9378    216.45    215.56    -19.99     20.00
   18.9480    214.90    213.59    -19.57     20.00
   18.9582    209.80    211.62    -22.70     20.00
   18.9683    210.12    209.67    -20.44     20.00
   18.9785    206.76    207.72    -21.84     20.00
   18.9887    206.98    205.77    -19.68     20.00
   18.9988    201.10    203.86    -23.65     20.00
   19.0090    202.71    201.95    -20.12     20.00
   19.0191    203.53    200.08    -17.43     20.00
   19.0293    197.63    198.21    -21.46     20.00
   19.0395    196.59    196.37    -20.66     20.00
   19.0496    196.51    194.57    -18.94     20.00
   19.0598    190.61    192.78    -23.06     20.00
   19.0700    192.03    191.02    -19.88     20.00
   19.0801    188.72    189.32    -21.48     20.00
   19.0903    187.17    187.62    -21.34     20.00
   19.1005    185.26    185.96    -21.59     20.00
   19.1106    184.82    184.36    -20.42     20.00
   19.1208    180.61    182.77    -23.04     20.00
   19.1310    180.32    181.21    -21.78     20.00
   19.1411    179.03    179.71    -21.56     20.00
   19.1513    177.70    178.23    -21.41     20.00
   19.1614    177.49    176.80    -20.19     20.00
   19.1716    173.93    175.39    -22.34     20.00
   19.1818    173.60    174.02    -21.30     20.00
   19.1919    174.10    172.70    -19.48     20.00
   19.2021    171.99    171.40    -20.29     20.00
   19.2123    169.35    170.13    -21.67     20.00
   19.2224    166.89    168.92    -22.91     20.00
   19.2326    167.51    167.73    -21.10     20.00
   19.2428    166.48    166.58    -20.98     20.00
   19.2529    163.34    165.47    -23.01     20.00
   19.2631    162.49    164.38    -22.78     20.00
   19.2733    161.88    163.33    -22.33     20.00
   19.2834    161.99    162.32    -21.22     20.00
   19.2936    160.80    161.34    -21.42     20.00
   19.3038    159.01    160.38    -22.26     20.00
   19.3139    158.76    159.47    -21.60     20.00
   19.3241    157.32    158.58    -22.15     20.00
   19.3342    154.70    157.73    -23.91     20.00
   19.3444    156.90    156.90    -20.88     20.00
   19.3546    155.47    156.10    -21.51     20.00
   19.3647    154.11    155.33    -22.11     20.00
   19.3749    153.66    154.59    -21.81     20.00
   19.3851    152.74    153.87    -22.01     20.00
   19.3952    151.29    153.18    -22.77     20.00
   19.4054    152.18    152.51    -21.22     20.00
   19.4156    148.21    151.87    -24.54     20.00
   19.4257    148.92    151.25    -23.22     20.00
   19.4359    151.41    150.66    -20.13     20.00
   19.4461    147.57    150.08    -23.39     20.00
   19.4562    146.41    149.53    -24.01     20.00
   19.4664    149.68    149.00    -20.20     20.00
   19.4765    146.23    148.49    -23.14     20.00
   19.4867    145.58    147.99    -23.30     20.00
   19.4969    146.36    147.52    -22.04     20.00
   19.5070    145.20    147.07    -22.75     20.00
   19.5172    144.21    146.62    -23.30     20.00
   19.5274    144.23    146.20    -22.85     20.00
   19.5375    144.30    145.80    -22.38     20.00
   19.5477    141.27    145.40    -25.02     20.00
   19.5579    144.70    145.02    -21.21     20.00
   19.5680    143.56    144.66    -21.99     20.00
   19.5782    142.16    144.31    -23.03     20.00
   19.5884    142.15    143.97    -22.71     20.00
   19.5985    143.02    143.65    -21.51     20.00
   19.6087    142.09    143.33    -22.13     20.00
   19.6188    140.51    143.03    -23.41     20.00
   19.6290    138.77    142.74    -24.86     20.00
   19.6392    141.57    142.46    -21.77     20.00
   19.6493    138.55    142.19    -24.52     20.00
   19.6595    140.63    141.93    -22.18     20.00
   19.6697    140.34    141.67    -22.22     20.00
   19.6798    138.87    141.43    -23.44     20.00
   19.6900    139.25    141.19    -22.83     20.00
   19.7002    137.27    140.96    -24.58     20.00
   19.7103    137.51    140.74    -24.12     20.00
   19.7205    137.27    140.53    -24.14     20.00
   19.7307    136.91    140.32    -24.30     20.00
   19.7408    136.90    140.12    -24.11     20.00
   19.7510    138.57    139.93    -22.24     20.00
   19.7612    137.87    139.74    -22.75     20.00
   19.7713    138.10    139.56    -22.34     20.00
   19.7815    138.62    139.38    -21.64     20.00
   19.7916    136.48    139.21    -23.61     20.00
   19.8018    136.86    139.04    -23.07     20.00
   19.8120    137.38    138.88    -22.39     20.00
   19.8221    136.22    138.73    -23.39     20.00
   19.8323    137.10    138.57    -22.36     20.00
   19.8425    136.45    138.43    -22.86     20.00
   19.8526    134.12    138.29    -25.05     20.00
   19.8628    136.34    138.15    -22.69     20.00
   19.8730    136.30    138.01    -22.60     20.00
   19.8831    136.30    137.88    -22.47     20.00
   19.8933    133.92    137.76    -24.72     20.00
   19.9035    135.87    137.64    -22.65     20.00
   19.9136    134.90    137.52    -23.50     20.00
   19.9238    137.45    137.41    -20.84     20.00
   19.9339    135.57    137.30    -22.61     20.00
   19.9441    136.21    137.19    -21.86     20.00
   19.9543    134.01    137.09    -23.96     20.00
   19.9644    135.07    136.99    -22.81     20.00
   19.9746    135.63    136.90    -22.15     20.00
   19.9848    134.68    136.81    -23.01     20.00
   19.9949    135.95    136.73    -21.66     20.00
   20.0051    134.29    136.65    -23.24     20.00
   20.0153    135.60    136.57    -21.86     20.00
   20.0254    134.49    136.50    -22.90     20.00
   20.0356    135.83    136.44    -21.49     20.00
   20.0458    137.32    136.38    -19.94     20.00
   20.0559    135.49    136.32    -21.72     20.00
   20.0661    135.29    136.27    -21.87     20.00
   20.0763    135.91    136.23    -21.20     20.00
   20.0864    134.97    136.19    -22.11     20.00
   20.0966    136.54    136.16    -20.50     20.00
   20.1067    136.82    136.13    -20.20     20.00
   20.1169    136.36    136.12    -20.64     20.00
   20.1271    134.08    136.11    -22.91     20.00
   20.1372    136.79    136.10    -20.20     20.00
   20.1474    137.55    136.11    -19.44     20.00
   20.1576    136.48    136.12    -20.52     20.00
   20.1677    138.00    136.14    -19.02     20.00
   20.1779    135.82    136.17    -21.23     20.00
   20.1881    137.45    136.20    -19.64     20.00
   20.1982    137.98    136.25    -19.15     20.00
   20.2084    137.65    136.30    -19.54     20.00
   20.2186    137.03    136.37    -20.22     20.00
   20.2287    138.38    136.44    -18.95     20.00
   20.2389    138.94    136.53    -18.47     20.00
   20.2490    136.34    136.63    -21.17     20.00
   20.2592    138.14    136.73    -19.48     20.00
   20.2694    138.80    136.85    -18.93     20.00
   20.2795    136.98    136.98    -20.88     20.00
   20.2897    137.50    137.12    -20.50     20.00
   20.2999    136.96    137.27    -21.19     20.00
   20.3100    137.83    137.43    -20.48     20.00
   20.3202    140.52    137.60    -17.97     20.00
   20.3304    141.70    137.79    -16.97     20.00
   20.3405    138.37    137.98    -20.50     20.00
   20.3507    140.35    138.19    -18.72     20.00
   20.3609    139.77    138.41    -19.52     20.00
   20.3710    140.07    138.63    -19.45     20.00
   20.3812    141.40    138.87    -18.36     20.00
   20.3914    141.23    139.12    -18.77     20.00
   20.4015    139.71    139.37    -20.55     20.00
   20.4117    142.50    139.64    -18.02     20.00
   20.4218    139.72    139.91    -21.07     20.00
   20.4320    139.89    140.18    -21.18     20.00
   20.4422    142.37    140.47    -18.98     20.00
   20.4523    143.85    140.75    -17.78     20.00
   20.4625    141.40    141.03    -20.52     20.00
   20.4727    141.16    141.32    -21.04     20.00
   20.4828    142.87    141.60    -19.61     20.00
   20.4930    142.36    141.88    -20.40     20.00
   20.5032    142.67    142.15    -20.36     20.00
   20.5133    142.62    142.40    -20.67     20.00
   20.5235    141.63    142.65    -21.90     20.00
   20.5337    143.09    142.88    -20.67     20.00
   20.5438    143.02    143.09    -20.95     20.00
   20.5540    141.88    143.27    -22.28     20.00
   20.5641    140.63    143.43    -23.68     20.00
   20.5743    141.95    143.56    -22.50     20.00
   20.5845    141.00    143.66    -23.54     20.00
   20.5946    142.18    143.72    -22.43     20.00
   20.6048    143.57    143.75    -21.06     20.00
   20.6150    141.52    143.73    -23.10     20.00
   20.6251    141.60    143.68    -22.96     20.00
   20.6353    142.05    143.58    -22.42     20.00
   20.6455    143.49    143.45    -20.84     20.00
   20.6556    144.53    143.27    -19.62     20.00
   20.6658    142.04    143.05    -21.89     20.00
   20.6760    141.41    142.79    -22.27     20.00
   20.6861    143.14    142.50    -20.24     20.00
   20.6963    141.79    142.17    -21.27     20.00
   20.7065    141.33    141.81    -21.37     20.00
   20.7166    139.57    141.43    -22.75     20.00
   20.7268    140.68    141.02    -21.22     20.00
   20.7369    140.98    140.59    -20.50     20.00
   20.7471    139.77    140.14    -21.26     20.00
   20.7573    141.98    139.68    -18.58     20.00
   20.7674    139.33    139.20    -20.76     20.00
   20.7776    138.85    138.72    -20.75     20.00
   20.7878    140.77    138.22    -18.34     20.00
   20.7979    137.57    137.73    -21.05     20.00
   20.8081    138.70    137.23    -19.42     20.00
   20.8183    137.81    136.74    -19.81     20.00
   20.8284    136.46    136.25    -20.67     20.00
   20.8386    137.46    135.76    -19.18     20.00
   20.8488    136.98    135.27    -19.17     20.00
   20.8589    137.38    134.80    -18.30     20.00
   20.8691    135.23    134.33    -19.98     20.00
   20.8792    137.08    133.87    -17.67     20.00
   20.8894    135.65    133.42    -18.65     20.00
   20.8996    135.93    132.97    -17.93     20.00
   20.9097    135.20    132.55    -18.23     20.00
   20.9199    132.73    132.12    -20.28     20.00
   20.9301    133.21    131.72    -19.39     20.00
   20.9402    134.08    131.32    -18.13     20.00
   20.9504    131.95    130.93    -19.87     20.00
   20.9606    131.48    130.56    -19.96     20.00
   20.9707    131.76    130.20    -19.33     20.00
   20.9809    130.73    129.85    -20.01     20.00
   20.9911    132.38    129.51    -18.02     20.00
   21.0012    132.63    129.19    -17.44     20.00
   21.0114    129.75    128.87    -20.01     20.00
   21.0216    128.37    128.57    -21.09     20.00
   21.0317    131.23    128.28    -17.94     20.00
   21.0419    127.48    128.00    -21.40     20.00
   21.0520    130.04    127.73    -18.58     20.00
   21.0622    127.52    127.47    -20.84     20.00
   21.0724    127.02    127.23    -21.09     20.00
   21.0825    126.68    126.99    -21.19     20.00
   21.0927    127.80    126.76    -19.84     20.00
   21.1029    126.07    126.54    -21.35     20.00
   21.1130    125.57    126.33    -21.65     20.00
   21.1232    125.45    126.13    -21.57     20.00
   21.1334    124.25    125.94    -22.57     20.00
   21.1435    125.82    125.76    -20.82     20.00
   21.1537    124.53    125.58    -21.94     20.00
   21.1639    123.12    125.42    -23.18     20.00
   21.1740    124.16    125.26    -21.98     20.00
   21.1842    125.58    125.11    -20.41     20.00
   21.1943    122.16    124.97    -23.69     20.00
   21.2045    123.41    124.83    -22.30     20.00
   21.2147    122.72    124.70    -22.86     20.00
   21.2248    121.90    124.58    -23.56     20.00
   21.2350    121.87    124.46    -23.48     20.00
   21.2452    121.37    124.35    -23.87     20.00
   21.2553    120.95    124.25    -24.18     20.00
   21.2655    122.48    124.15    -22.56     20.00
   21.2757    122.15    124.06    -22.80     20.00
   21.2858    120.11    123.98    -24.75     20.00
   21.2960    121.63    123.90    -23.15     20.00
   21.3062    118.76    123.83    -25.95     20.00
   21.3163    120.54    123.76    -24.10     20.00
   21.3265    120.60    123.70    -23.98     20.00
   21.3366    119.76    123.64    -24.77     20.00
   21.3468    117.85    123.59    -26.62     20.00
   21.3570    119.25    123.55    -25.18     20.00
   21.3671    119.73    123.51    -24.66     20.00
   21.3773    118.36    123.47    -26.00     20.00
   21.3875    121.15    123.45    -23.18     20.00
   21.3976    120.48    123.42    -23.83     20.00
   21.4078    117.21    123.41    -27.08     20.00
   21.4180    119.77    123.40    -24.51     20.00
   21.4281    118.92    123.39    -25.35     20.00
   21.4383    116.41    123.39    -27.87     20.00
   21.4485    120.32    123.40    -23.96     20.00
   21.4586    118.73    123.41    -25.56     20.00
   21.4688    115.99    123.43    -28.32     20.00
   21.4790    119.12    123.45    -25.22     20.00
   21.4891    119.45    123.49    -24.92     20.00
   21.4993    117.62    123.52    -26.79     20.00
   21.5094    119.87    123.57    -24.58     20.00
   21.5196    117.76    123.62    -26.74     20.00
   21.5298    116.69    123.67    -27.87     20.00
   21.5399    116.85    123.74    -27.77     20.00
   21.5501    120.50    123.81    -24.19     20.00
   21.5603    119.09    123.88    -25.68     20.00
   21.5704    118.98    123.97    -25.87     20.00
   21.5806    120.28    124.06    -24.66     20.00
   21.5908    118.66    124.16    -26.38     20.00
   21.6009    119.33    124.26    -25.82     20.00
   21.6111    120.29    124.38    -24.97     20.00
   21.6213    118.02    124.50    -27.36     20.00
   21.6314    120.28    124.63    -25.23     20.00
   21.6416    120.15    124.76    -25.50     20.00
   21.6517    120.27    124.91    -25.52     20.00
   21.6619    121.71    125.06    -24.23     20.00
   21.6721    122.13    125.22    -23.97     20.00
   21.6822    121.48    125.39    -24.79     20.00
   21.6924    123.69    125.56    -22.76     20.00
   21.7026    122.65    125.75    -23.98     20.00
   21.7127    123.36    125.94    -23.46     20.00
   21.7229    123.12    126.14    -23.91     20.00
   21.7331    123.74    126.35    -23.50     20.00
   21.7432    122.83    126.57    -24.63     20.00
   21.7534    124.55    126.80    -23.13     20.00
   21.7636    127.14    127.04    -20.78     20.00
   21.7737    123.60    127.28    -24.57     20.00
   21.7839    126.99    127.54    -21.43     20.00
   21.7941    127.11    127.80    -21.58     20.00
   21.8042    127.41    128.07    -21.55     20.00
   21.8144    128.90    128.36    -20.34     20.00
   21.8245    127.22    128.65    -22.31     20.00
   21.8347    126.98    128.95    -22.85     20.00
   21.8449    130.24    129.26    -19.90     20.00
   21.8550    129.75    129.57    -20.71     20.00
   21.8652    129.45    129.90    -21.34     20.00
   21.8754    132.38    130.24    -18.74     20.00
   21.8855    132.52    130.58    -18.95     20.00
   21.8957    130.40    130.94    -21.42     20.00
   21.9059    133.82    131.31    -18.37     20.00
   21.9160    134.32    131.68    -18.24     20.00
   21.9262    132.79    132.06    -20.15     20.00
   21.9364    134.69    132.45    -18.65     20.00
   21.9465    135.23    132.85    -18.51     20.00
   21.9567    134.43    133.26    -19.72     20.00
   21.9668    136.17    133.68    -18.39     20.00
   21.9770    137.51    134.10    -17.48     20.00
   21.9872    135.57    134.54    -19.85     20.00
   21.9973    137.05    134.98    -18.81     20.00
   22.0075    136.59    135.43    -19.72     20.00
   22.0177    136.74    135.89    -20.03     20.00
   22.0278    138.10    136.35    -19.13     20.00
   22.0380    139.52    136.82    -18.19     20.00
   22.0482    140.43    137.31    -17.76     20.00
   22.0583    141.60    137.79    -17.07     20.00
   22.0685    142.57    138.28    -16.60     20.00
   22.0787    139.43    138.78    -20.23     20.00
   22.0888    142.24    139.28    -17.92     20.00
   22.0990    142.90    139.79    -17.77     20.00
   22.1092    143.38    140.30    -17.81     20.00
   22.1193    143.62    140.82    -18.08     20.00
   22.1295    143.49    141.34    -18.73     20.00
   22.1396    144.24    141.86    -18.50     20.00
   22.1498    145.95    142.39    -17.32     20.00
   22.1600    146.48    142.92    -17.32     20.00
   22.1701    145.16    143.44    -19.17     20.00
   22.1803    147.76    143.97    -17.10     20.00
   22.1905    146.83    144.50    -18.56     20.00
   22.2006    145.99    145.03    -19.92     20.00
   22.2108    149.78    145.55    -16.66     20.00
   22.2210    149.59    146.08    -17.37     20.00
   22.2311    147.40    146.59    -20.08     20.00
   22.2413    151.02    147.11    -16.97     20.00
   22.2515    151.04    147.62    -17.46     20.00
   22.2616    149.63    148.12    -19.37     20.00
   22.2718    151.23    148.61    -18.27     20.00
   22.2819    152.28    149.10    -17.70     20.00
   22.2921    151.29    149.57    -19.17     20.00
   22.3023    153.86    150.04    -17.06     20.00
   22.3124    154.75    150.49    -16.62     20.00
   22.3226    151.43    150.92    -20.38     20.00
   22.3328    153.56    151.35    -18.67     20.00
   22.3429    154.99    151.75    -17.65     20.00
   22.3531    154.47    152.14    -18.56     20.00
   22.3633    153.61    152.51    -19.79     20.00
   22.3734    154.37    152.86    -19.38     20.00
   22.3836    155.35    153.19    -18.73     20.00
   22.3938    153.92    153.50    -20.46     20.00
   22.4039    155.96    153.78    -18.70     20.00
   22.4141    155.05    154.04    -19.87     20.00
   22.4243    157.34    154.27    -17.82     20.00
   22.4344    156.62    154.48    -18.74     20.00
   22.4446    154.37    154.65    -21.17     20.00
   22.4547    154.77    154.80    -20.91     20.00
   22.4649    154.32    154.92    -21.48     20.00
   22.4751    154.05    155.00    -21.84     20.00
   22.4852    153.33    155.06    -22.61     20.00
   22.4954    154.56    155.08    -21.40     20.00
   22.5056    152.71    155.07    -23.24     20.00
   22.5157    154.15    155.02    -21.76     20.00
   22.5259    155.01    154.95    -20.82     20.00
   22.5361    152.37    154.83    -23.35     20.00
   22.5462    153.32    154.69    -22.25     20.00
   22.5564    154.69    154.50    -20.70     20.00
   22.5666    152.12    154.29    -23.05     20.00
   22.5767    152.75    154.04    -22.17     20.00
   22.5869    152.55    153.75    -22.09     20.00
   22.5970    151.95    153.44    -22.37     20.00
   22.6072    151.97    153.08    -22.00     20.00
   22.6174    150.18    152.70    -23.40     20.00
   22.6275    149.34    152.28    -23.83     20.00
   22.6377    149.05    151.84    -23.67     20.00
   22.6479    149.40    151.36    -22.84     20.00
   22.6580    147.43    150.85    -24.31     20.00
   22.6682    147.29    150.31    -23.91     20.00
   22.6784    146.76    149.75    -23.87     20.00
   22.6885    144.57    149.16    -25.48     20.00
   22.6987    147.10    148.55    -22.33     20.00
   22.7089    145.33    147.90    -23.46     20.00
   22.7190    143.72    147.25    -24.41     20.00
   22.7292    144.47    146.56    -22.97     20.00
   22.7394    144.62    145.85    -22.12     20.00
   22.7495    142.12    145.14    -23.90     20.00
   22.7597    141.69    144.39    -23.59     20.00
   22.7698    140.62    143.64    -23.90     20.00
   22.7800    140.22    142.86    -23.53     20.00
   22.7902    141.87    142.08    -21.09     20.00
   22.8003    139.61    141.28    -22.56     20.00
   22.8105    136.87    140.47    -24.48     20.00
   22.8207    137.82    139.64    -22.71     20.00
   22.8308    138.02    138.82    -21.68     20.00
   22.8410    136.09    137.98    -22.77     20.00
   22.8512    135.52    137.13    -22.49     20.00
   22.8613    135.33    136.28    -21.83     20.00
   22.8715    133.82    135.42    -22.48     20.00
   22.8817    132.88    134.56    -22.56     20.00
   22.8918    132.92    133.70    -21.66     20.00
   22.9020    131.77    132.83    -21.94     20.00
   22.9121    130.94    131.97    -21.91     20.00
   22.9223    132.40    131.10    -19.58     20.00
   22.9325    130.05    130.22    -21.06     20.00
   22.9426    130.31    129.36    -19.94     20.00
   22.9528    127.59    128.50    -21.79     20.00
   22.9630    126.95    127.63    -21.56     20.00
   22.9731    127.89    126.77    -19.77     20.00
   22.9833    125.39    125.91    -21.41     20.00
   22.9935    123.77    125.06    -22.17     20.00
   23.0036    124.05    124.22    -21.05     20.00
   23.0138    123.15    123.37    -21.10     20.00
   23.0240    124.98    122.53    -18.43     20.00
   23.0341    121.38    121.70    -21.21     20.00
   23.0443    121.62    120.88    -20.14     20.00
   23.0545    120.29    120.05    -20.65     20.00
   23.0646    118.51    119.25    -21.62     20.00
   23.0748    119.19    118.44    -20.13     20.00
   23.0849    117.57    117.65    -20.96     20.00
   23.0951    115.66    116.85    -22.08     20.00
   23.1053    117.15    116.07    -19.80     20.00
   23.1154    116.48    115.30    -19.70     20.00
   23.1256    116.46    114.53    -18.96     20.00
   23.1358    115.21    113.77    -19.45     20.00
   23.1459    113.95    113.03    -19.96     20.00
   23.1561    113.85    112.29    -19.32     20.00
   23.1663    112.93    111.56    -19.51     20.00
   23.1764    112.66    110.84    -19.06     20.00
   23.1866    110.62    110.12    -20.39     20.00
   23.1968    111.85    109.42    -18.45     20.00
   23.2069    111.25    108.73    -18.36     20.00
   23.2171    110.19    108.04    -18.74     20.00
   23.2272    110.34    107.37    -17.91     20.00
   23.2374    108.85    106.70    -18.74     20.00
   23.2476    108.13    106.04    -18.80     20.00
   23.2577    108.43    105.40    -17.85     20.00
   23.2679    106.78    104.76    -18.86     20.00
   23.2781    106.76    104.13    -18.25     20.00
   23.2882    105.32    103.51    -19.08     20.00
   23.2984    106.23    102.90    -17.56     20.00
   23.3086    104.57    102.30    -18.61     20.00
   23.3187    103.34    101.71    -19.26     20.00
   23.3289    102.30    101.13    -19.71     20.00
   23.3391    102.33    100.55    -19.11     20.00
   23.3492    101.41     99.99    -19.46     20.00
   23.3594    101.10     99.43    -19.22     20.00
   23.3695    101.05     98.89    -18.72     20.00
   23.3797    100.99     98.35    -18.24     20.00
   23.3899     98.29     97.82    -20.41     20.00
   23.4000     98.43     97.30    -19.76     20.00
   23.4102     99.05     96.79    -18.62     20.00
   23.4204     99.48     96.28    -17.69     20.00
   23.4305     98.40     95.79    -18.27     20.00
   23.4407     97.27     95.30    -18.91     20.00
   23.4509     97.74     94.82    -17.96     20.00
   23.4610     96.77     94.35    -18.46     20.00
   23.4712     95.26     93.89    -19.51     20.00
   23.4814     94.52     93.43    -19.79     20.00
   23.4915     94.43     92.98    -19.44     20.00
   23.5017     93.50     92.54    -19.92     20.00
   23.5119     93.59     92.11    -19.40     20.00
   23.5220     92.15     91.68    -20.42     20.00
   23.5322     93.59     91.26    -18.56     20.00
   23.5423     92.32     90.85    -19.42     20.00
   23.5525     93.48     90.44    -17.85     20.00
   23.5627     90.68     90.04    -20.25     20.00
   23.5728     91.43     89.66    -19.11     20.00
   23.5830     92.24     89.27    -17.91     20.00
   23.5932     89.74     88.89    -20.03     20.00
   23.6033     89.99     88.52    -19.41     20.00
   23.6135     90.70     88.15    -18.33     20.00
   23.6237     88.92     87.79    -19.75     20.00
   23.6338     87.07     87.43    -21.25     20.00
   23.6440     87.87     87.08    -20.10     20.00
   23.6542     87.57     86.74    -20.05     20.00
   23.6643     88.59     86.40    -18.70     20.00
   23.6745     86.65     86.07    -20.30     20.00
   23.6846     86.25     85.74    -20.37     20.00
   23.6948     86.34     85.42    -19.96     20.00
   23.7050     86.23     85.10    -19.75     20.00
   23.7151     84.19     84.79    -21.48     20.00
   23.7253     83.74     84.48    -21.62     20.00
   23.7355     85.74     84.17    -19.32     20.00
   23.7456     84.46     83.87    -20.30     20.00
   23.7558     82.61     83.58    -21.85     20.00
   23.7660     83.75     83.29    -20.42     20.00
   23.7761     82.70     83.00    -21.19     20.00
   23.7863     83.97     82.72    -19.63     20.00
   23.7965     82.86     82.44    -20.46     20.00
   23.8066     82.98     82.17    -20.07     20.00
   23.8168     81.72     81.89    -21.06     20.00
   23.8270     82.32     81.63    -20.19     20.00
   23.8371     81.25     81.36    -21.00     20.00
   23.8473     80.55     81.10    -21.44     20.00
   23.8574     80.15     80.85    -21.58     20.00
   23.8676     80.31     80.59    -21.17     20.00
   23.8778     79.89     80.34    -21.34     20.00
   23.8879     79.40     80.10    -21.58     20.00
   23.8981     79.34     79.85    -21.40     20.00
   23.9083     78.21     79.61    -22.28     20.00
   23.9184     79.32     79.37    -20.94     20.00
   23.9286     78.04     79.14    -21.98     20.00
   23.9388     80.15     78.90    -19.64     20.00
   23.9489     77.80     78.67    -21.76     20.00
   23.9591     78.14     78.45    -21.19     20.00
   23.9693     78.41     78.22    -20.69     20.00
   23.9794     76.25     78.00    -22.63     20.00
   23.9896     76.62     77.78    -22.04     20.00
   23.9997     75.34     77.56    -23.10     20.00
   24.0099     77.27     77.34    -20.96     20.00
   24.0201     75.33     77.13    -22.68     20.00
   24.0302     75.00     76.92    -22.80     20.00
   24.0404     75.87     76.71    -21.72     20.00
   24.0506     75.14     76.50    -22.24     20.00
   24.0607     75.45     76.30    -21.73     20.00
   24.0709     76.26     76.09    -20.72     20.00
   24.0811     73.65     75.89    -23.12     20.00
   24.0912     74.84     75.69    -21.73     20.00
   24.1014     74.71     75.49    -21.67     20.00
   24.1116     74.24     75.29    -21.94     20.00
   24.1217     74.03     75.10    -21.95     20.00
   24.1319     73.11     74.91    -22.68     20.00
   24.1421     74.16     74.71    -21.44     20.00
   24.1522     73.20     74.53    -22.21     20.00
   24.1624     71.89     74.34    -23.33     20.00
   24.1725     72.65     74.15    -22.38     20.00
   24.1827     72.07     73.96    -22.78     20.00
   24.1929     72.81     73.78    -21.85     20.00
   24.2030     72.34     73.60    -22.14     20.00
   24.2132     70.97     73.42    -23.33     20.00
   24.2234     71.43     73.24    -22.69     20.00
   24.2335     71.30     73.06    -22.64     20.00
   24.2437     70.82     72.88    -22.94     20.00
   24.2539     71.62     72.70    -21.97     20.00
   24.2640     71.51     72.53    -21.90     20.00
   24.2742     69.95     72.35    -23.29     20.00
   24.2844     69.68     72.18    -23.38     20.00
   24.2945     69.55     72.01    -23.34     20.00
   24.3047     69.16     71.84    -23.56     20.00
   24.3148     70.10     71.67    -22.45     20.00
   24.3250     69.26     71.50    -23.13     20.00
   24.3352     69.51     71.33    -22.71     20.00
   24.3453     69.12     71.17    -22.93     20.00
   24.3555     69.50     71.00    -22.39     20.00
   24.3657     70.57     70.84    -21.15     20.00
   24.3758     68.49     70.68    -23.07     20.00
   24.3860     68.12     70.51    -23.28     20.00
   24.3962     68.96     70.35    -22.28     20.00
   24.4063     67.24     70.19    -23.84     20.00
   24.4165     69.99     70.03    -20.93     20.00
   24.4267     68.28     69.87    -22.48     20.00
   24.4368     68.45     69.72    -22.15     20.00
   24.4470     68.60     69.56    -21.84     20.00
   24.4572     67.23     69.40    -23.06     20.00
   24.4673     67.85     69.25    -22.28     20.00
   24.4775     66.46     69.09    -23.52     20.00
   24.4876     67.54     68.94    -22.29     20.00
   24.4978     66.17     68.79    -23.50     20.00
   24.5080     67.59     68.64    -21.93     20.00
   24.5181     68.40     68.49    -20.97     20.00
   24.5283     67.43     68.34    -21.79     20.00
   24.5385     65.37     68.19    -23.70     20.00
   24.5486     66.03     68.04    -22.89     20.00
   24.5588     66.20     67.89    -22.57     20.00
   24.5690     66.10     67.74    -22.53     20.00
   24.5791     65.77     67.60    -22.71     20.00
   24.5893     65.41     67.45    -22.93     20.00
   24.5995     65.22     67.31    -22.97     20.00
   24.6096     65.44     67.16    -22.61     20.00
   24.6198     64.51     67.02    -23.39     20.00
   24.6299     65.24     66.88    -22.52     20.00
   24.6401     65.66     66.74    -21.96     20.00
   24.6503     65.54     66.59    -21.94     20.00
   24.6604     65.65     66.45    -21.69     20.00
   24.6706     65.47     66.31    -21.73     20.00
   24.6808     65.18     66.17    -21.88     20.00
   24.6909     65.53     66.04    -21.39     20.00
   24.7011     64.63     65.90    -22.15     20.00
   24.7113     65.41     65.76    -21.23     20.00
   24.7214     63.55     65.62    -22.96     20.00
   24.7316     64.95     65.49    -21.42     20.00
   24.7418     64.45     65.35    -21.79     20.00
   24.7519     64.51     65.22    -21.59     20.00
   24.7621     65.42     65.08    -20.55     20.00
   24.7723     64.59     64.95    -21.24     20.00
   24.7824     63.98     64.82    -21.72     20.00
   24.7926     63.43     64.69    -22.14     20.00
   24.8027     63.91     64.55    -21.53     20.00
   24.8129     63.54     64.42    -21.77     20.00
   24.8231     63.53     64.29    -21.65     20.00
   24.8332     62.84     64.16    -22.21     20.00
   24.8434     64.37     64.03    -20.55     20.00
   24.8536     63.56     63.91    -21.23     20.00
   24.8637     62.45     63.78    -22.21     20.00
   24.8739     63.04     63.65    -21.49     20.00
   24.8841     63.48     63.52    -20.93     20.00
   24.8942     62.83     63.40    -21.45     20.00
   24.9044     60.97     63.27    -23.19     20.00
   24.9146     62.44     63.15    -21.59     20.00
   24.9247     62.92     63.02    -20.99     20.00
   24.9349     62.49     62.90    -21.29     20.00
   24.9450     63.05     62.78    -20.61     20.00
   24.9552     61.68     62.65    -21.86     20.00
   24.9654     60.86     62.53    -22.55     20.00
   24.9755     61.95     62.41    -21.34     20.00
   24.9857     61.72     62.29    -21.45     20.00
   24.9959     60.90     62.17    -22.15     20.00
   25.0060     60.98     62.05    -21.95     20.00
   25.0162     60.95     61.93    -21.86     20.00
   25.0264     60.66     61.81    -22.03     20.00
   25.0365     63.07     61.69    -19.50     20.00
   25.0467     61.83     61.57    -20.63     20.00
   25.0569     61.87     61.45    -20.47     20.00
   25.0670     61.23     61.34    -20.99     20.00
   25.0772     60.74     61.22    -21.37     20.00
   25.0874     61.81     61.11    -20.18     20.00
   25.0975     61.16     60.99    -20.72     20.00
   25.1077     61.84     60.88    -19.92     20.00
   25.1178     60.90     60.76    -20.75     20.00
   25.1280     60.03     60.65    -21.50     20.00
   25.1382     60.71     60.54    -20.71     20.00
   25.1483     60.13     60.42    -21.18     20.00
   25.1585     60.70     60.31    -20.49     20.00
   25.1687     60.01     60.20    -21.07     20.00
   25.1788     60.39     60.09    -20.58     20.00
   25.1890     60.96     59.98    -19.90     20.00
   25.1992     60.07     59.87    -20.68     20.00
   25.2093     59.38     59.76    -21.26     20.00
   25.2195     60.56     59.65    -19.97     20.00
   25.2297     60.04     59.54    -20.38     20.00
   25.2398     61.00     59.43    -19.32     20.00
   25.2500     60.00     59.32    -20.21     20.00
   25.2601     59.23     59.22    -20.87     20.00
   25.2703     59.77     59.11    -20.22     20.00
   25.2805     58.93     59.00    -20.96     20.00
   25.2906     59.63     58.90    -20.15     20.00
   25.3008     59.33     58.79    -20.35     20.00
   25.3110     59.60     58.69    -19.97     20.00
   25.3211     58.92     58.59    -20.55     20.00
   25.3313     59.63     58.48    -19.74     20.00
   25.3415     59.07     58.38    -20.19     20.00
   25.3516     59.41     58.28    -19.75     20.00
   25.3618     59.63     58.17    -19.43     20.00
   25.3720     58.90     58.07    -20.06     20.00
   25.3821     59.55     57.97    -19.31     20.00
   25.3923     60.23     57.87    -18.52     20.00
   25.4024     58.67     57.77    -19.98     20.00
   25.4126     58.34     57.67    -20.21     20.00
   25.4228     57.46     57.57    -21.00     20.00
   25.4329     59.43     57.47    -18.93     20.00
   25.4431     59.42     57.37    -18.84     20.00
   25.4533     58.44     57.28    -19.72     20.00
   25.4634     57.07     57.18    -20.99     20.00
   25.4736     59.72     57.08    -18.25     20.00
   25.4838     58.18     56.99    -19.69     20.00
   25.4939     59.17     56.89    -18.60     20.00
   25.5041     58.26     56.79    -19.42     20.00
   25.5143     58.62     56.70    -18.96     20.00
   25.5244     58.93     56.61    -18.56     20.00
   25.5346     57.21     56.51    -20.19     20.00
   25.5448     58.36     56.42    -18.94     20.00
   25.5549     56.37     56.33    -20.84     20.00
   25.5651     57.29     56.23    -19.83     20.00
   25.5752     57.69     56.14    -19.34     20.00
   25.5854     58.38     56.05    -18.55     20.00
   25.5956     56.98     55.96    -19.86     20.00
   25.6057     57.41     55.87    -19.34     20.00
   25.6159     56.20     55.78    -20.46     20.00
   25.6261     57.38     55.69    -19.19     20.00
   25.6362     57.41     55.60    -19.07     20.00
   25.6464     57.30     55.51    -19.09     20.00
   25.6566     57.66     55.42    -18.65     20.00
   25.6667     57.00     55.33    -19.22     20.00
   25.6769     55.41     55.25    -20.72     20.00
   25.6871     56.98     55.16    -19.06     20.00
   25.6972     57.74     55.07    -18.22     20.00
   25.7074     57.46     54.99    -18.41     20.00
   25.7175     56.65     54.90    -19.14     20.00
   25.7277     57.30     54.82    -18.40     20.00
   25.7379     56.60     54.73    -19.02     20.00
   25.7480     57.07     54.65    -18.46     20.00
   25.7582     56.63     54.57    -18.82     20.00
   25.7684     56.85     54.48    -18.52     20.00
   25.7785     57.31     54.40    -17.98     20.00
   25.7887     57.41     54.32    -17.79     20.00
   25.7989     55.93     54.24    -19.19     20.00
   25.8090     57.30     54.16    -17.74     20.00
   25.8192     56.68     54.08    -18.28     20.00
   25.8294     55.62     54.00    -19.26     20.00
   25.8395     56.12     53.92    -18.68     20.00
   25.8497     56.21     53.84    -18.51     20.00
   25.8599     56.24     53.76    -18.41     20.00
   25.8700     56.55     53.68    -18.02     20.00
   25.8802     55.01     53.61    -19.48     20.00
   25.8903     55.96     53.53    -18.45     20.00
   25.9005     54.91     53.45    -19.43     20.00
   25.9107     55.23     53.38    -19.03     20.00
   25.9208     54.98     53.30    -19.21     20.00
   25.9310     56.20     53.23    -17.91     20.00
   25.9412     55.69     53.15    -18.35     20.00
   25.9513     55.42     53.08    -18.55     20.00
   25.9615     55.44     53.01    -18.45     20.00
   25.9717     54.65     52.94    -19.17     20.00
   25.9818     55.67     52.86    -18.08     20.00
   25.9920     55.73     52.79    -17.95     20.00
   26.0022     55.56     52.72    -18.04     20.00
   26.0123     55.38     52.65    -18.16     20.00
   26.0225     56.88     52.58    -16.59     20.00
   26.0326     54.46     52.51    -18.94     20.00
   26.0428     54.88     52.44    -18.45     20.00
   26.0530     54.68     52.38    -18.58     20.00
   26.0631     55.16     52.31    -18.03     20.00
   26.0733     54.19     52.24    -18.93     20.00
   26.0835     53.54     52.17    -19.52     20.00
   26.0936     54.64     52.11    -18.35     20.00
   26.1038     54.53     52.04    -18.40     20.00
   26.1140     54.04     51.98    -18.82     20.00
   26.1241     53.99     51.92    -18.81     20.00
   26.1343     54.60     51.85    -18.14     20.00
   26.1445     53.82     51.79    -18.85     20.00
   26.1546     52.99     51.73    -19.62     20.00
   26.1648     54.97     51.67    -17.58     20.00
   26.1750     55.34     51.60    -17.15     20.00
   26.1851     54.73     51.54    -17.70     20.00
   26.1953     54.02     51.48    -18.35     20.00
   26.2054     53.39     51.43    -18.92     20.00
   26.2156     54.54     51.37    -17.71     20.00
   26.2258     53.91     51.31    -18.28     20.00
   26.2359     53.97     51.25    -18.17     20.00
   26.2461     52.58     51.20    -19.50     20.00
   26.2563     54.14     51.14    -17.88     20.00
   26.2664     52.98     51.08    -18.99     20.00
   26.2766     53.70     51.03    -18.21     20.00
   26.2868     54.48     50.98    -17.38     20.00
   26.2969     53.54     50.92    -18.27     20.00
   26.3071     53.66     50.87    -18.10     20.00
   26.3173     52.88     50.82    -18.82     20.00
   26.3274     52.43     50.77    -19.22     20.00
   26.3376     54.04     50.72    -17.56     20.00
   26.3477     53.70     50.67    -17.85     20.00
   26.3579     53.81     50.62    -17.69     20.00
   26.3681     52.81     50.57    -18.65     20.00
   26.3782     52.42     50.53    -18.99     20.00
   26.3884     52.66     50.48    -18.70     20.00
   26.3986     52.59     50.43    -18.73     20.00
   26.4087     53.21     50.39    -18.06     20.00
   26.4189     54.15     50.35    -17.08     20.00
   26.4291     53.63     50.30    -17.56     20.00
   26.4392     53.49     50.26    -17.65     20.00
   26.4494     52.58     50.22    -18.52     20.00
   26.4596     52.68     50.18    -18.38     20.00
   26.4697     52.49     50.14    -18.53     20.00
   26.4799     52.74     50.10    -18.24     20.00
   26.4901     52.01     50.06    -18.93     20.00
   26.5002     52.99     50.02    -17.92     20.00
   26.5104     52.73     49.99    -18.14     20.00
   26.5205     53.10     49.95    -17.74     20.00
   26.5307     51.73     49.92    -19.07     20.00
   26.5409     52.01     49.88    -18.76     20.00
   26.5510     52.63     49.85    -18.10     20.00
   26.5612     51.63     49.82    -19.07     20.00
   26.5714     51.68     49.79    -18.99     20.00
   26.5815     52.47     49.76    -18.17     20.00
   26.5917     51.84     49.73    -18.77     20.00
   26.6019     52.68     49.70    -17.91     20.00
   26.6120     51.94     49.67    -18.62     20.00
   26.6222     51.60     49.65    -18.93     20.00
   26.6324     52.63     49.62    -17.88     20.00
   26.6425     51.62     49.60    -18.86     20.00
   26.6527     51.77     49.58    -18.69     20.00
   26.6628     53.30     49.56    -17.14     20.00
   26.6730     51.40     49.54    -19.02     20.00
   26.6832     52.49     49.52    -17.91     20.00
   26.6933     51.84     49.50    -18.54     20.00
   26.7035     51.50     49.48    -18.86     20.00
   26.7137     52.25     49.46    -18.10     20.00
   26.7238     51.05     49.45    -19.28     20.00
   26.7340     50.75     49.44    -19.57     20.00
   26.7442     52.25     49.42    -18.06     20.00
   26.7543     51.21     49.41    -19.09     20.00
   26.7645     52.07     49.40    -18.22     20.00
   26.7747     51.53     49.39    -18.75     20.00
   26.7848     51.12     49.38    -19.15     20.00
   26.7950     51.51     49.38    -18.75     20.00
   26.8052     52.20     49.37    -18.06     20.00
   26.8153     51.68     49.37    -18.57     20.00
   26.8255     50.52     49.37    -19.73     20.00
   26.8356     50.94     49.37    -19.31     20.00
   26.8458     50.80     49.37    -19.45     20.00
   26.8560     50.89     49.37    -19.36     20.00
   26.8661     50.97     49.37    -19.28     20.00
   26.8763     51.58     49.37    -18.68     20.00
   26.8865     51.16     49.38    -19.10     20.00
   26.8966     51.15     49.39    -19.12     20.00
   26.9068     50.56     49.39    -19.72     20.00
   26.9170     51.82     49.40    -18.47     20.00
   26.9271     51.24     49.42    -19.06     20.00
   26.9373     50.89     49.43    -19.42     20.00
   26.9475     50.86     49.44    -19.47     20.00
   26.9576     51.35     49.46    -18.99     20.00
   26.9678     50.87     49.47    -19.49     20.00
   26.9779     51.65     49.49    -18.73     20.00
   26.9881     50.92     49.51    -19.48     20.00
   26.9983     49.52     49.54    -20.90     20.00
   27.0084     51.60     49.56    -18.84     20.00
   27.0186     50.64     49.58    -19.83     20.00
   27.0288     50.27     49.61    -20.22     20.00
   27.0389     50.55     49.64    -19.97     20.00
   27.0491     51.62     49.67    -18.93     20.00
   27.0593     51.66     49.70    -18.92     20.00
   27.0694     51.73     49.73    -18.89     20.00
   27.0796     51.17     49.77    -19.48     20.00
   27.0898     50.23     49.80    -20.46     20.00
   27.0999     50.85     49.84    -19.87     20.00
   27.1101     50.88     49.88    -19.88     20.00
   27.1202     50.80     49.92    -20.01     20.00
   27.1304     50.63     49.97    -20.22     20.00
   27.1406     50.55     50.01    -20.34     20.00
   27.1507     49.87     50.06    -21.07     20.00
   27.1609     51.59     50.11    -19.40     20.00
   27.1711     51.47     50.16    -19.57     20.00
   27.1812     50.98     50.21    -20.11     20.00
   27.1914     50.55     50.26    -20.60     20.00
   27.2016     50.68     50.32    -20.52     20.00
   27.2117     50.13     50.37    -21.13     20.00
   27.2219     49.67     50.43    -21.65     20.00
   27.2321     49.85     50.49    -21.53     20.00
   27.2422     50.60     50.56    -20.84     20.00
   27.2524     51.09     50.62    -20.42     20.00
   27.2626     49.34     50.69    -22.23     20.00
   27.2727     50.64     50.76    -21.00     20.00
   27.2829     49.63     50.83    -22.08     20.00
   27.2930     49.26     50.90    -22.52     20.00
   27.3032     50.21     50.97    -21.65     20.00
   27.3134     49.05     51.05    -22.88     20.00
   27.3235     50.23     51.13    -21.78     20.00
   27.3337     49.75     51.21    -22.34     20.00
   27.3439     49.83     51.29    -22.34     20.00
   27.3540     50.80     51.37    -21.46     20.00
   27.3642     51.25     51.46    -21.09     20.00
   27.3744     51.39     51.55    -21.04     20.00
   27.3845     51.24     51.64    -21.28     20.00
   27.3947     49.89     51.73    -22.72     20.00
   27.4049     50.71     51.82    -21.99     20.00
   27.4150     50.59     51.92    -22.21     20.00
   27.4252     49.79     52.01    -23.11     20.00
   27.4353     50.15     52.11    -22.85     20.00
   27.4455     50.12     52.21    -22.98     20.00
   27.4557     49.85     52.32    -23.35     20.00
   27.4658     51.35     52.42    -21.95     20.00
   27.4760     51.38     52.53    -22.03     20.00
   27.4862     50.67     52.64    -22.85     20.00
   27.4963     50.46     52.74    -23.17     20.00
   27.5065     51.54     52.86    -22.20     20.00
   27.5167     51.33     52.97    -22.53     20.00
   27.5268     50.69     53.09    -23.28     20.00
   27.5370     51.87     53.20    -22.22     20.00
   27.5472     51.69     53.32    -22.52     20.00
   27.5573     51.04     53.44    -23.29     20.00
   27.5675     52.04     53.57    -22.41     20.00
   27.5777     51.68     53.69    -22.90     20.00
   27.5878     51.50     53.82    -23.20     20.00
   27.5980     51.91     53.95    -22.92     20.00
   27.6081     51.69     54.08    -23.27     20.00
   27.6183     51.49     54.21    -23.60     20.00
   27.6285     50.98     54.34    -24.25     20.00
   27.6386     52.26     54.48    -23.10     20.00
   27.6488     53.18     54.61    -22.32     20.00
   27.6590     53.38     54.75    -22.26     20.00
   27.6691     51.63     54.89    -24.14     20.00
   27.6793     52.16     55.03    -23.76     20.00
   27.6895     50.89     55.17    -25.17     20.00
   27.6996     53.41     55.32    -22.79     20.00
   27.7098     51.88     55.46    -24.47     20.00
   27.7200     52.08     55.61    -24.41     20.00
   27.7301     52.95     55.76    -23.69     20.00
   27.7403     52.02     55.91    -24.77     20.00
   27.7504     52.38     56.05    -24.56     20.00
   27.7606     52.94     56.21    -24.15     20.00
   27.7708     54.22     56.36    -23.02     20.00
   27.7809     53.13     56.51    -24.26     20.00
   27.7911     53.11     56.66    -24.44     20.00
   27.8013     52.26     56.82    -25.44     20.00
   27.8114     53.04     56.97    -24.82     20.00
   27.8216     52.69     57.13    -25.33     20.00
   27.8318     53.76     57.29    -24.41     20.00
   27.8419     53.44     57.45    -24.89     20.00
   27.8521     52.87     57.60    -25.62     20.00
   27.8623     54.09     57.76    -24.56     20.00
   27.8724     54.53     57.92    -24.27     20.00
   27.8826     54.46     58.08    -24.50     20.00
   27.8928     55.27     58.24    -23.85     20.00
   27.9029     56.23     58.40    -23.05     20.00
   27.9131     54.51     58.56    -24.93     20.00
   27.9232     55.69     58.71    -23.91     20.00
   27.9334     55.84     58.87    -23.92     20.00
   27.9436     55.47     59.03    -24.45     20.00
   27.9537     56.05     59.19    -24.02     20.00
   27.9639     55.96     59.35    -24.27     20.00
   27.9741     57.34     59.50    -23.05     20.00
   27.9842     55.49     59.66    -25.05     20.00
   27.9944     55.99     59.81    -24.71     20.00
   28.0046     56.55     59.97    -24.30     20.00
   28.0147     56.55     60.12    -24.45     20.00
   28.0249     56.79     60.27    -24.36     20.00
   28.0351     56.52     60.42    -24.78     20.00
   28.0452     57.10     60.57    -24.35     20.00
   28.0554     56.91     60.71    -24.69     20.00
   28.0655     57.45     60.86    -24.29     20.00
   28.0757     58.75     61.00    -23.13     20.00
   28.0859     58.34     61.14    -23.68     20.00
   28.0960     58.87     61.28    -23.29     20.00
   28.1062     58.12     61.41    -24.18     20.00
   28.1164     59.02     61.54    -23.41     20.00
   28.1265     58.70     61.67    -23.86     20.00
   28.1367     59.94     61.80    -22.74     20.00
   28.1469     59.59     61.92    -23.22     20.00
   28.1570     60.79     62.04    -22.14     20.00
   28.1672     59.44     62.16    -23.60     20.00
   28.1774     60.31     62.27    -22.85     20.00
   28.1875     59.66     62.38    -23.61     20.00
   28.1977     60.99     62.49    -22.38     20.00
   28.2079     61.13     62.59    -22.35     20.00
   28.2180     61.77     62.69    -21.80     20.00
   28.2282     60.76     62.78    -22.91     20.00
   28.2383     61.88     62.87    -21.88     20.00
   28.2485     62.26     62.96    -21.58     20.00
   28.2587     63.31     63.04    -20.61     20.00
   28.2688     62.96     63.11    -21.04     20.00
   28.2790     62.36     63.18    -21.71     20.00
   28.2892     63.46     63.25    -20.67     20.00
   28.2993     63.21     63.31    -20.99     20.00
   28.3095     64.76     63.37    -19.49     20.00
   28.3197     63.12     63.42    -21.18     20.00
   28.3298     63.15     63.46    -21.20     20.00
   28.3400     63.91     63.50    -20.48     20.00
   28.3502     62.95     63.54    -21.47     20.00
   28.3603     63.93     63.57    -20.52     20.00
   28.3705     64.81     63.59    -19.66     20.00
   28.3806     65.11     63.61    -19.38     20.00
   28.3908     65.54     63.62    -18.96     20.00
   28.4010     64.57     63.62    -19.94     20.00
   28.4111     65.05     63.62    -19.46     20.00
   28.4213     66.02     63.62    -18.48     20.00
   28.4315     65.65     63.61    -18.84     20.00
   28.4416     64.49     63.59    -19.98     20.00
   28.4518     65.98     63.57    -18.47     20.00
   28.4620     65.11     63.54    -19.31     20.00
   28.4721     65.16     63.51    -19.23     20.00
   28.4823     65.32     63.47    -19.03     20.00
   28.4925     64.74     63.42    -19.57     20.00
   28.5026     66.48     63.37    -17.77     20.00
   28.5128     65.84     63.31    -18.36     20.00
   28.5230     65.08     63.25    -19.06     20.00
   28.5331     66.62     63.19    -17.45     20.00
   28.5433     65.73     63.11    -18.27     20.00
   28.5534     65.03     63.04    -18.89     20.00
   28.5636     65.25     62.95    -18.59     20.00
   28.5738     66.09     62.87    -17.66     20.00
   28.5839     65.35     62.78    -18.31     20.00
   28.5941     66.91     62.68    -16.65     20.00
   28.6043     65.62     62.58    -17.84     20.00
   28.6144     64.39     62.47    -18.96     20.00
   28.6246     66.32     62.36    -16.92     20.00
   28.6348     65.82     62.24    -17.31     20.00
   28.6449     64.83     62.13    -18.18     20.00
   28.6551     64.31     62.00    -18.58     20.00
   28.6653     66.05     61.88    -16.71     20.00
   28.6754     64.30     61.75    -18.33     20.00
   28.6856     65.87     61.61    -16.63     20.00
   28.6957     65.82     61.48    -16.54     20.00
   28.7059     64.65     61.33    -17.57     20.00
   28.7161     64.81     61.19    -17.26     20.00
   28.7262     64.70     61.04    -17.23     20.00
   28.7364     64.05     60.89    -17.73     20.00
   28.7466     62.95     60.74    -18.67     20.00
   28.7567     62.18     60.59    -19.29     20.00
   28.7669     62.56     60.43    -18.75     20.00
   28.7771     62.71     60.27    -18.44     20.00
   28.7872     62.21     60.11    -18.78     20.00
   28.7974     63.05     59.94    -17.78     20.00
   28.8076     62.96     59.78    -17.70     20.00
   28.8177     61.79     59.61    -18.70     20.00
   28.8279     62.13     59.44    -18.19     20.00
   28.8381     61.71     59.27    -18.44     20.00
   28.8482     63.91     59.10    -16.07     20.00
   28.8584     61.41     58.93    -18.40     20.00
   28.8685     59.59     58.75    -20.05     20.00
   28.8787     60.82     58.58    -18.64     20.00
   28.8889     61.12     58.40    -18.16     20.00
   28.8990     60.57     58.22    -18.54     20.00
   28.9092     59.59     58.05    -19.34     20.00
   28.9194     59.86     57.87    -18.89     20.00
   28.9295     59.99     57.69    -18.58     20.00
   28.9397     59.05     57.51    -19.34     20.00
   28.9499     59.26     57.33    -18.95     20.00
   28.9600     58.98     57.15    -19.06     20.00
   28.9702     58.74     56.97    -19.12     20.00
   28.9804     58.45     56.79    -19.23     20.00
   28.9905     57.35     56.61    -20.15     20.00
   29.0007     57.81     56.43    -19.51     20.00
   29.0108     57.65     56.26    -19.49     20.00
   29.0210     57.39     56.08    -19.57     20.00
   29.0312     57.34     55.90    -19.44     20.00
   29.0413     57.08     55.72    -19.53     20.00
   29.0515     56.21     55.54    -20.22     20.00
   29.0617     57.25     55.37    -19.00     20.00
   29.0718     56.84     55.19    -19.24     20.00
   29.0820     55.48     55.02    -20.42     20.00
   29.0922     56.95     54.84    -18.78     20.00
   29.1023     56.96     54.67    -18.59     20.00
   29.1125     55.43     54.50    -19.95     20.00
   29.1227     55.97     54.32    -19.24     20.00
   29.1328     53.07     54.15    -21.97     20.00
   29.1430     54.71     53.98    -20.16     20.00
   29.1531     54.74     53.81    -19.96     20.00
   29.1633     54.03     53.65    -20.50     20.00
   29.1735     53.59     53.48    -20.77     20.00
   29.1836     54.08     53.31    -20.12     20.00
   29.1938     53.27     53.15    -20.76     20.00
   29.2040     52.81     52.98    -21.06     20.00
   29.2141     52.91     52.82    -20.80     20.00
   29.2243     52.16     52.66    -21.39     20.00
   29.2345     52.38     52.50    -21.00     20.00
   29.2446     53.45     52.34    -19.78     20.00
   29.2548     53.87     52.19    -19.20     20.00
   29.2650     52.19     52.03    -20.72     20.00
   29.2751     52.37     51.87    -20.39     20.00
   29.2853     50.87     51.72    -21.73     20.00
   29.2955     51.89     51.57    -20.56     20.00
   29.3056     51.92     51.42    -20.38     20.00
   29.3158     50.63     51.27    -21.52     20.00
   29.3259     50.53     51.12    -21.47     20.00
   29.3361     51.49     50.97    -20.37     20.00
   29.3463     49.96     50.83    -21.75     20.00
   29.3564     50.97     50.68    -20.60     20.00
   29.3666     50.14     50.54    -21.28     20.00
   29.3768     50.79     50.40    -20.49     20.00
   29.3869     50.40     50.26    -20.74     20.00
   29.3971     49.81     50.12    -21.19     20.00
   29.4073     49.78     49.98    -21.09     20.00
   29.4174     49.70     49.85    -21.03     20.00
   29.4276     50.08     49.71    -20.52     20.00
   29.4378     49.90     49.58    -20.56     20.00
   29.4479     48.82     49.45    -21.51     20.00
   29.4581     49.13     49.32    -21.07     20.00
   29.4682     48.07     49.19    -22.00     20.00
   29.4784     49.45     49.06    -20.49     20.00
   29.4886     48.57     48.93    -21.25     20.00
   29.4987     48.70     48.81    -20.99     20.00
   29.5089     48.18     48.68    -21.39     20.00
   29.5191     48.60     48.56    -20.84     20.00
   29.5292     47.23     48.44    -22.09     20.00
   29.5394     48.93     48.32    -20.27     20.00
   29.5496     48.20     48.20    -20.88     20.00
   29.5597     47.45     48.08    -21.51     20.00
   29.5699     47.62     47.96    -21.23     20.00
   29.5801     48.40     47.85    -20.33     20.00
   29.5902     47.50     47.73    -21.12     20.00
   29.6004     47.49     47.62    -21.01     20.00
   29.6106     47.21     47.51    -21.18     20.00
   29.6207     46.41     47.39    -21.87     20.00
   29.6309     46.44     47.28    -21.73     20.00
   29.6410     47.07     47.18    -20.99     20.00
   29.6512     46.38     47.07    -21.57     20.00
   29.6614     46.48     46.96    -21.36     20.00
   29.6715     46.88     46.86    -20.86     20.00
   29.6817     47.00     46.75    -20.63     20.00
   29.6919     45.70     46.65    -21.83     20.00
   29.7020     45.93     46.54    -21.50     20.00
   29.7122     45.74     46.44    -21.59     20.00
   29.7224     46.02     46.34    -21.20     20.00
   29.7325     45.95     46.24    -21.17     20.00
   29.7427     46.24     46.14    -20.79     20.00
   29.7529     45.96     46.04    -20.97     20.00
   29.7630     46.16     45.95    -20.67     20.00
   29.7732     45.84     45.85    -20.89     20.00
   29.7833     45.08     45.75    -21.56     20.00
   29.7935     46.27     45.66    -20.27     20.00
   29.8037     46.51     45.56    -19.94     20.00
   29.8138     45.59     45.47    -20.77     20.00
   29.8240     46.76     45.38    -19.50     20.00
   29.8342     45.39     45.29    -20.78     20.00
   29.8443     45.16     45.20    -20.92     20.00
   29.8545     45.14     45.11    -20.85     20.00
   29.8647     44.96     45.02    -20.94     20.00
   29.8748     44.34     44.93    -21.47     20.00
   29.8850     45.58     44.84    -20.14     20.00
   29.8952     45.12     44.75    -20.52     20.00
   29.9053     45.17     44.67    -20.38     20.00
   29.9155     44.42     44.58    -21.04     20.00
   29.9257     45.35     44.49    -20.03     20.00
   29.9358     44.83     44.41    -20.46     20.00
   29.9460     44.97     44.32    -20.24     20.00
   29.9561     44.66     44.24    -20.46     20.00
   29.9663     45.51     44.16    -19.53     20.00
   29.9765     45.09     44.07    -19.87     20.00
   29.9866     44.57     43.99    -20.31     20.00
   29.9968     44.22     43.91    -20.57     20.00
   30.0070     44.84     43.83    -19.87     20.00
   30.0171     44.51     43.75    -20.12     20.00
   30.0273     43.93     43.67    -20.62     20.00
   30.0375     42.76     43.59    -21.71     20.00
   30.0476     43.02     43.51    -21.37     20.00
   30.0578     45.18     43.43    -19.13     20.00
   30.0680     44.84     43.35    -19.39     20.00
   30.0781     44.06     43.27    -20.10     20.00
   30.0883     43.70     43.19    -20.38     20.00
   30.0984     43.71     43.12    -20.29     20.00
   30.1086     44.01     43.04    -19.91     20.00
   30.1188     43.92     42.96    -19.93     20.00
   30.1289     42.51     42.89    -21.26     20.00
   30.1391     42.94     42.81    -20.75     20.00
   30.1493     43.38     42.73    -20.24     20.00
   30.1594     42.99     42.66    -20.55     20.00
   30.1696     42.12     42.58    -21.35     20.00
   30.1798     43.49     42.51    -19.90     20.00
   30.1899     43.19     42.43    -20.13     20.00
   30.2001     42.34     42.36    -20.90     20.00
   30.2103     43.01     42.29    -20.16     20.00
   30.2204     42.63     42.21    -20.47     20.00
   30.2306     41.83     42.14    -21.19     20.00
   30.2408     41.82     42.07    -21.13     20.00
   30.2509     42.80     41.99    -20.08     20.00
   30.2611     42.80     41.92    -20.01     20.00
   30.2712     42.61     41.85    -20.12     20.00
   30.2814     41.34     41.78    -21.32     20.00
   30.2916     41.80     41.71    -20.79     20.00
   30.3017     41.05     41.63    -21.47     20.00
   30.3119     42.38     41.56    -20.07     20.00
   30.3221     41.79     41.49    -20.59     20.00
   30.3322     42.03     41.42    -20.28     20.00
   30.3424     41.27     41.35    -20.96     20.00
   30.3526     40.31     41.28    -21.85     20.00
   30.3627     41.80     41.21    -20.29     20.00
   30.3729     41.18     41.14    -20.84     20.00
   30.3831     40.62     41.07    -21.33     20.00
   30.3932     40.59     41.00    -21.30     20.00
   30.4034     42.16     40.93    -19.66     20.00
   30.4135     40.33     40.86    -21.42     20.00
   30.4237     41.40     40.79    -20.28     20.00
   30.4339     40.26     40.73    -21.35     20.00
   30.4440     40.10     40.66    -21.44     20.00
   30.4542     40.83     40.59    -20.64     20.00
   30.4644     40.55     40.52    -20.85     20.00
   30.4745     40.55     40.45    -20.79     20.00
   30.4847     39.46     40.39    -21.81     20.00
   30.4949     40.02     40.32    -21.18     20.00
   30.5050     39.42     40.25    -21.72     20.00
   30.5152     40.21     40.18    -20.86     20.00
   30.5254     39.73     40.12    -21.27     20.00
   30.5355     39.53     40.05    -21.41     20.00
   30.5457     40.69     39.98    -20.18     20.00
   30.5559     38.85     39.92    -21.95     20.00
   30.5660     39.66     39.85    -21.08     20.00
   30.5762     39.36     39.79    -21.31     20.00
   30.5863     39.59     39.72    -21.02     20.00
   30.5965     39.09     39.66    -21.45     20.00
   30.6067     38.87     39.59    -21.61     20.00
   30.6168     39.03     39.53    -21.38     20.00
   30.6270     39.45     39.46    -20.90     20.00
   30.6372     38.59     39.40    -21.69     20.00
   30.6473     38.90     39.33    -21.32     20.00
   30.6575     38.46     39.27    -21.69     20.00
   30.6677     37.43     39.21    -22.66     20.00
   30.6778     38.46     39.14    -21.57     20.00
   30.6880     37.52     39.08    -22.44     20.00
   30.6982     38.22     39.02    -21.68     20.00
   30.7083     38.73     38.95    -21.11     20.00
   30.7185     37.68     38.89    -22.09     20.00
   30.7286     39.30     38.83    -20.41     20.00
   30.7388     38.54     38.77    -21.11     20.00
   30.7490     37.13     38.70    -22.46     20.00
   30.7591     37.31     38.64    -22.22     20.00
   30.7693     37.43     38.58    -22.04     20.00
   30.7795     37.40     38.52    -22.00     20.00
   30.7896     38.70     38.46    -20.64     20.00
   30.7998     38.13     38.40    -21.15     20.00
   30.8100     36.68     38.34    -22.54     20.00
   30.8201     36.92     38.28    -22.24     20.00
   30.8303     37.02     38.22    -22.08     20.00
   30.8405     37.26     38.16    -21.78     20.00
   30.8506     37.54     38.10    -21.44     20.00
   30.8608     37.48     38.04    -21.44     20.00
   30.8710     37.46     37.98    -21.41     20.00
   30.8811     37.58     37.92    -21.23     20.00
   30.8913     37.52     37.86    -21.23     20.00
   30.9014     37.45     37.81    -21.24     20.00
   30.9116     37.41     37.75    -21.22     20.00
   30.9218     36.20     37.69    -22.38     20.00
   30.9319     36.71     37.63    -21.81     20.00
   30.9421     36.16     37.58    -22.30     20.00
   30.9523     36.68     37.52    -21.72     20.00
   30.9624     36.40     37.46    -21.95     20.00
   30.9726     36.38     37.41    -21.91     20.00
   30.9828     36.84     37.35    -21.40     20.00
   30.9929     35.80     37.30    -22.38     20.00
   31.0031     36.77     37.24    -21.36     20.00
   31.0133     36.61     37.19    -21.46     20.00
   31.0234     35.90     37.13    -22.12     20.00
   31.0336     36.65     37.08    -21.31     20.00
   31.0437     35.59     37.02    -22.32     20.00
   31.0539     35.09     36.97    -22.76     20.00
   31.0641     36.45     36.92    -21.35     20.00
   31.0742     35.75     36.86    -22.00     20.00
   31.0844     35.67     36.81    -22.02     20.00
   31.0946     35.55     36.76    -22.09     20.00
   31.1047     35.21     36.71    -22.38     20.00
   31.1149     35.82     36.65    -21.72     20.00
   31.1251     35.38     36.60    -22.11     20.00
   31.1352     35.75     36.55    -21.68     20.00
   31.1454     35.02     36.50    -22.36     20.00
   31.1556     35.77     36.45    -21.56     20.00
   31.1657     36.29     36.40    -20.99     20.00
   31.1759     35.15     36.35    -22.08     20.00
   31.1860     35.68     36.30    -21.50     20.00
   31.1962     35.86     36.25    -21.27     20.00
   31.2064     35.27     36.20    -21.81     20.00
   31.2165     34.65     36.15    -22.39     20.00
   31.2267     35.76     36.10    -21.23     20.00
   31.2369     35.04     36.05    -21.90     20.00
   31.2470     35.49     36.01    -21.40     20.00
   31.2572     35.23     35.96    -21.61     20.00
   31.2674     35.59     35.91    -21.21     20.00
   31.2775     35.60     35.87    -21.15     20.00
   31.2877     34.83     35.82    -21.87     20.00
   31.2979     35.30     35.77    -21.36     20.00
   31.3080     34.77     35.73    -21.84     20.00
   31.3182     34.60     35.68    -21.96     20.00
   31.3284     35.28     35.64    -21.24     20.00
   31.3385     35.11     35.59    -21.36     20.00
   31.3487     35.18     35.55    -21.25     20.00
   31.3588     34.55     35.50    -21.84     20.00
   31.3690     34.90     35.46    -21.44     20.00
   31.3792     35.79     35.41    -20.51     20.00
   31.3893     34.46     35.37    -21.79     20.00
   31.3995     33.91     35.33    -22.30     20.00
   31.4097     35.46     35.28    -20.71     20.00
   31.4198     34.92     35.24    -21.21     20.00
   31.4300     34.34     35.20    -21.74     20.00
   31.4402     34.78     35.16    -21.26     20.00
   31.4503     34.76     35.12    -21.24     20.00
   31.4605     34.26     35.08    -21.70     20.00
   31.4707     34.62     35.04    -21.30     20.00
   31.4808     34.27     35.00    -21.61     20.00
   31.4910     34.15     34.96    -21.69     20.00
   31.5011     35.41     34.92    -20.39     20.00
   31.5113     33.29     34.88    -22.47     20.00
   31.5215     34.29     34.84    -21.43     20.00
   31.5316     34.08     34.80    -21.60     20.00
   31.5418     33.73     34.76    -21.91     20.00
   31.5520     34.59     34.72    -21.02     20.00
   31.5621     34.76     34.68    -20.81     20.00
   31.5723     33.99     34.65    -21.54     20.00
   31.5825     34.97     34.61    -20.52     20.00
   31.5926     33.37     34.57    -22.09     20.00
   31.6028     34.38     34.54    -21.04     20.00
   31.6130     33.32     34.50    -22.06     20.00
   31.6231     33.51     34.47    -21.84     20.00
   31.6333     33.39     34.43    -21.92     20.00
   31.6435     33.41     34.39    -21.87     20.00
   31.6536     33.63     34.36    -21.61     20.00
   31.6638     34.48     34.33    -20.73     20.00
   31.6739     34.34     34.29    -20.84     20.00
   31.6841     35.18     34.26    -19.96     20.00
   31.6943     34.10     34.22    -21.01     20.00
   31.7044     33.74     34.19    -21.34     20.00
   31.7146     33.13     34.16    -21.91     20.00
   31.7248     33.53     34.13    -21.48     20.00
   31.7349     34.52     34.09    -20.46     20.00
   31.7451     33.57     34.06    -21.38     20.00
   31.7553     33.85     34.03    -21.06     20.00
   31.7654     33.38     34.00    -21.50     20.00
   31.7756     33.63     33.97    -21.22     20.00
   31.7858     33.64     33.94    -21.18     20.00
   31.7959     34.60     33.91    -20.19     20.00
   31.8061     33.43     33.88    -21.33     20.00
   31.8162     33.16     33.85    -21.57     20.00
   31.8264     33.60     33.82    -21.10     20.00
   31.8366     33.97     33.79    -20.70     20.00
   31.8467     33.54     33.76    -21.10     20.00
   31.8569     33.37     33.73    -21.25     20.00
   31.8671     33.70     33.70    -20.89     20.00
   31.8772     33.10     33.68    -21.46     20.00
   31.8874     33.82     33.65    -20.71     20.00
   31.8976     33.29     33.62    -21.22     20.00
   31.9077     33.73     33.59    -20.75     20.00
   31.9179     34.12     33.57    -20.33     20.00
   31.9281     33.27     33.54    -21.16     20.00
   31.9382     33.19     33.52    -21.21     20.00
   31.9484     32.51     33.49    -21.86     20.00
   31.9586     34.04     33.46    -20.31     20.00
   31.9687     33.63     33.44    -20.69     20.00
   31.9789     34.02     33.41    -20.28     20.00
   31.9890     33.10     33.39    -21.17     20.00
   31.9992     33.35     33.37    -20.90     20.00
   32.0094     34.05     33.34    -20.18     20.00
   32.0195     33.31     33.32    -20.89     20.00
   32.0297     33.58     33.29    -20.60     20.00
   32.0399     34.24     33.27    -19.92     20.00
   32.0500     33.68     33.25    -20.45     20.00
   32.0602     32.15     33.23    -21.96     20.00
   32.0704     34.35     33.20    -19.74     20.00
   32.0805     33.60     33.18    -20.47     20.00
   32.0907     32.62     33.16    -21.42     20.00
   32.1009     33.67     33.14    -20.35     20.00
   32.1110     33.97     33.12    -20.03     20.00
   32.1212     33.04     33.10    -20.94     20.00
   32.1313     32.51     33.08    -21.45     20.00
   32.1415     34.12     33.06    -19.82     20.00
   32.1517     32.45     33.03    -21.47     20.00
   32.1618     33.04     33.02    -20.86     20.00
   32.1720     33.67     33.00    -20.21     20.00
   32.1822     34.24     32.98    -19.62     20.00
   32.1923     33.73     32.96    -20.11     20.00
   32.2025     33.40     32.94    -20.42     20.00
   32.2127     33.45     32.92    -20.35     20.00
   32.2228     33.57     32.90    -20.21     20.00
   32.2330     33.12     32.88    -20.65     20.00
   32.2432     33.35     32.86    -20.40     20.00
   32.2533     33.16     32.85    -20.57     20.00
   32.2635     34.17     32.83    -19.54     20.00
   32.2737     33.54     32.81    -20.15     20.00
   32.2838     32.51     32.79    -21.17     20.00
   32.2940     32.79     32.78    -20.87     20.00
   32.3041     33.99     32.76    -19.65     20.00
   32.3143     34.06     32.74    -19.57     20.00
   32.3245     33.52     32.73    -20.09     20.00
   32.3346     32.59     32.71    -21.01     20.00
   32.3448     32.85     32.70    -20.73     20.00
   32.3550     32.77     32.68    -20.79     20.00
   32.3651     33.60     32.66    -19.95     20.00
   32.3753     33.57     32.65    -19.96     20.00
   32.3855     32.65     32.63    -20.87     20.00
   32.3956     33.23     32.62    -20.27     20.00
   32.4058     33.12     32.60    -20.37     20.00
   32.4160     32.91     32.59    -20.56     20.00
   32.4261     33.16     32.57    -20.30     20.00
   32.4363     33.17     32.56    -20.27     20.00
   32.4464     33.32     32.55    -20.11     20.00
   32.4566     32.88     32.53    -20.54     20.00
   32.4668     32.69     32.52    -20.71     20.00
   32.4769     33.45     32.50    -19.94     20.00
   32.4871     32.59     32.49    -20.79     20.00
   32.4973     33.46     32.48    -19.90     20.00
   32.5074     33.02     32.46    -20.33     20.00
   32.5176     32.64     32.45    -20.70     20.00
   32.5278     33.16     32.44    -20.16     20.00
   32.5379     33.01     32.43    -20.30     20.00
   32.5481     32.53     32.41    -20.77     20.00
   32.5583     33.07     32.40    -20.21     20.00
   32.5684     33.30     32.39    -19.97     20.00
   32.5786     32.85     32.38    -20.41     20.00
   32.5888     33.02     32.36    -20.23     20.00
   32.5989     33.11     32.35    -20.13     20.00
   32.6091     32.70     32.34    -20.52     20.00
   32.6192     32.65     32.33    -20.56     20.00
   32.6294     33.16     32.32    -20.04     20.00
   32.6396     32.71     32.30    -20.48     20.00
   32.6497     32.77     32.29    -20.41     20.00
   32.6599     32.54     32.28    -20.62     20.00
   32.6701     31.91     32.27    -21.24     20.00
   32.6802     33.24     32.26    -19.90     20.00
   32.6904     32.98     32.25    -20.15     20.00
   32.7006     33.24     32.24    -19.88     20.00
   32.7107     33.30     32.22    -19.81     20.00
   32.7209     32.58     32.21    -20.52     20.00
   32.7311     32.43     32.20    -20.66     20.00
   32.7412     32.60     32.19    -20.47     20.00
   32.7514     32.34     32.18    -20.72     20.00
   32.7615     32.52     32.17    -20.53     20.00
   32.7717     32.34     32.16    -20.70     20.00
   32.7819     32.47     32.15    -20.56     20.00
   32.7920     32.51     32.13    -20.51     20.00
   32.8022     33.63     32.12    -19.38     20.00
   32.8124     33.27     32.11    -19.73     20.00
   32.8225     33.33     32.10    -19.66     20.00
   32.8327     33.12     32.09    -19.85     20.00
   32.8429     32.84     32.08    -20.12     20.00
   32.8530     31.78     32.07    -21.17     20.00
   32.8632     32.31     32.06    -20.63     20.00
   32.8734     32.52     32.05    -20.41     20.00
   32.8835     32.50     32.04    -20.42     20.00
   32.8937     33.46     32.02    -19.45     20.00
   32.9039     32.70     32.01    -20.20     20.00
   32.9140     32.03     32.00    -20.86     20.00
   32.9242     32.29     31.99    -20.58     20.00
   32.9343     32.58     31.98    -20.28     20.00
   32.9445     32.23     31.97    -20.62     20.00
   32.9547     32.52     31.96    -20.32     20.00
   32.9648     33.60     31.94    -19.23     20.00
   32.9750     32.28     31.93    -20.54     20.00
   32.9852     32.93     31.92    -19.88     20.00
   32.9953     32.86     31.91    -19.93     20.00
   33.0055     31.93     31.90    -20.85     20.00
   33.0157     32.11     31.89    -20.66     20.00
   33.0258     32.88     31.87    -19.88     20.00
   33.0360     33.30     31.86    -19.45     20.00
   33.0462     33.52     31.85    -19.21     20.00
   33.0563     33.18     31.84    -19.54     20.00
   33.0665     33.12     31.82    -19.59     20.00
   33.0766     32.29     31.81    -20.41     20.00
   33.0868     32.90     31.80    -19.78     20.00
   33.0970     32.15     31.79    -20.52     20.00
   33.1071     34.07     31.77    -18.59     20.00
   33.1173     33.47     31.76    -19.17     20.00
   33.1275     33.18     31.75    -19.45     20.00
   33.1376     32.79     31.73    -19.83     20.00
   33.1478     32.92     31.72    -19.68     20.00
   33.1580     32.55     31.71    -20.04     20.00
   33.1681     32.37     31.69    -20.21     20.00
   33.1783     33.10     31.68    -19.46     20.00
   33.1885     32.85     31.66    -19.70     20.00
   33.1986     32.96     31.65    -19.57     20.00
   33.2088     32.77     31.64    -19.75     20.00
   33.2189     32.83     31.62    -19.68     20.00
   33.2291     32.75     31.61    -19.74     20.00
   33.2393     33.17     31.59    -19.31     20.00
   33.2494     32.41     31.58    -20.05     20.00
   33.2596     32.68     31.56    -19.77     20.00
   33.2698     33.78     31.55    -18.65     20.00
   33.2799     33.00     31.53    -19.41     20.00
   33.2901     33.58     31.51    -18.82     20.00
   33.3003     32.88     31.50    -19.50     20.00
   33.3104     33.11     31.48    -19.26     20.00
   33.3206     32.82     31.47    -19.53     20.00
   33.3308     32.64     31.45    -19.69     20.00
   33.3409     33.07     31.43    -19.25     20.00
   33.3511     33.38     31.42    -18.92     20.00
   33.3613     32.96     31.40    -19.32     20.00
   33.3714     33.51     31.38    -18.76     20.00
   33.3816     33.32     31.36    -18.93     20.00
   33.3917     32.74     31.35    -19.49     20.00
   33.4019     32.91     31.33    -19.30     20.00
   33.4121     33.27     31.31    -18.93     20.00
   33.4222     32.84     31.29    -19.34     20.00
   33.4324     33.65     31.28    -18.51     20.00
   33.4426     32.52     31.26    -19.62     20.00
   33.4527     34.15     31.24    -17.97     20.00
   33.4629     32.80     31.22    -19.30     20.00
   33.4731     32.55     31.20    -19.53     20.00
   33.4832     33.55     31.18    -18.51     20.00
   33.4934     33.30     31.16    -18.75     20.00
   33.5036     32.88     31.14    -19.15     20.00
   33.5137     33.07     31.12    -18.94     20.00
   33.5239     33.44     31.10    -18.55     20.00
   33.5340     32.51     31.08    -19.46     20.00
   33.5442     33.28     31.06    -18.67     20.00
   33.5544     32.62     31.04    -19.30     20.00
   33.5645     32.37     31.02    -19.53     20.00
   33.5747     33.06     31.00    -18.82     20.00
   33.5849     32.57     30.98    -19.29     20.00
   33.5950     32.54     30.96    -19.30     20.00
   33.6052     32.43     30.94    -19.39     20.00
   33.6154     32.84     30.91    -18.96     20.00
   33.6255     32.50     30.89    -19.28     20.00
   33.6357     31.71     30.87    -20.04     20.00
   33.6459     31.69     30.85    -20.04     20.00
   33.6560     30.93     30.83    -20.78     20.00
   33.6662     31.47     30.80    -20.22     20.00
   33.6764     32.43     30.78    -19.23     20.00
   33.6865     31.90     30.76    -19.74     20.00
   33.6967     31.73     30.74    -19.89     20.00
   33.7068     32.61     30.71    -18.99     20.00
   33.7170     32.48     30.69    -19.09     20.00
   33.7272     31.65     30.67    -19.90     20.00
   33.7373     31.43     30.64    -20.10     20.00
   33.7475     32.19     30.62    -19.31     20.00
   33.7577     31.40     30.60    -20.08     20.00
   33.7678     30.95     30.57    -20.51     20.00
   33.7780     31.45     30.55    -19.98     20.00
   33.7882     30.39     30.52    -21.02     20.00
   33.7983     31.11     30.50    -20.27     20.00
   33.8085     30.48     30.47    -20.88     20.00
   33.8187     30.59     30.45    -20.74     20.00
   33.8288     30.76     30.43    -20.55     20.00
   33.8390     30.35     30.40    -20.94     20.00
   33.8491     30.82     30.38    -20.44     20.00
   33.8593     30.68     30.35    -20.56     20.00
   33.8695     30.33     30.33    -20.88     20.00
   33.8796     30.13     30.30    -21.06     20.00
   33.8898     30.84     30.28    -20.32     20.00
   33.9000     29.72     30.25    -21.42     20.00
   33.9101     29.88     30.23    -21.23     20.00
   33.9203     29.71     30.20    -21.37     20.00
   33.9305     29.56     30.18    -21.50     20.00
   33.9406     29.52     30.15    -21.51     20.00
   33.9508     30.07     30.12    -20.94     20.00
   33.9610     30.02     30.10    -20.96     20.00
   33.9711     29.62     30.07    -21.34     20.00
   33.9813     29.83     30.05    -21.10     20.00
   33.9915     29.54     30.02    -21.36     20.00
   34.0016     29.08     30.00    -21.80     20.00
   34.0118     29.38     29.97    -21.47     20.00
   34.0219     29.73     29.94    -21.10     20.00
   34.0321     29.73     29.92    -21.07     20.00
   34.0423     29.50     29.89    -21.27     20.00
   34.0524     28.97     29.86    -21.78     20.00
   34.0626     29.40     29.84    -21.32     20.00
   34.0728     28.96     29.81    -21.74     20.00
   34.0829     28.96     29.79    -21.71     20.00
   34.0931     28.81     29.76    -21.83     20.00
   34.1033     28.45     29.73    -22.17     20.00
   34.1134     28.44     29.71    -22.15     20.00
   34.1236     28.93     29.68    -21.63     20.00
   34.1338     28.91     29.65    -21.63     20.00
   34.1439     28.30     29.63    -22.21     20.00
   34.1541     28.76     29.60    -21.73     20.00
   34.1642     28.93     29.58    -21.53     20.00
   34.1744     28.80     29.55    -21.63     20.00
   34.1846     28.21     29.52    -22.20     20.00
   34.1947     28.46     29.50    -21.92     20.00
   34.2049     29.16     29.47    -21.19     20.00
   34.2151     28.19     29.44    -22.14     20.00
   34.2252     28.65     29.42    -21.65     20.00
   34.2354     27.92     29.39    -22.35     20.00
   34.2456     28.39     29.36    -21.86     20.00
   34.2557     28.19     29.34    -22.03     20.00
   34.2659     29.33     29.31    -20.87     20.00
   34.2761     28.31     29.28    -21.86     20.00
   34.2862     27.52     29.26    -22.62     20.00
   34.2964     27.77     29.23    -22.35     20.00
   34.3066     28.02     29.21    -22.07     20.00
   34.3167     28.04     29.18    -22.02     20.00
   34.3269     26.97     29.15    -23.07     20.00
   34.3370     27.13     29.13    -22.88     20.00
   34.3472     28.47     29.10    -21.52     20.00
   34.3574     27.46     29.08    -22.50     20.00
   34.3675     28.02     29.05    -21.91     20.00
   34.3777     27.01     29.02    -22.90     20.00
   34.3879     27.08     29.00    -22.80     20.00
   34.3980     27.96     28.97    -21.90     20.00
   34.4082     28.09     28.95    -21.74     20.00
   34.4184     26.88     28.92    -22.92     20.00
   34.4285     27.32     28.89    -22.46     20.00
   34.4387     27.58     28.87    -22.17     20.00
   34.4489     27.93     28.84    -21.80     20.00
   34.4590     27.65     28.82    -22.05     20.00
   34.4692     26.96     28.79    -22.72     20.00
   34.4793     27.20     28.77    -22.45     20.00
   34.4895     27.79     28.74    -21.83     20.00
   34.4997     27.17     28.72    -22.43     20.00
   34.5098     27.18     28.69    -22.39     20.00
   34.5200     26.39     28.66    -23.16     20.00
   34.5302     27.45     28.64    -22.07     20.00
   34.5403     27.70     28.61    -21.80     20.00
   34.5505     27.60     28.59    -21.87     20.00
   34.5607     27.76     28.56    -21.69     20.00
   34.5708     26.71     28.54    -22.71     20.00
   34.5810     26.45     28.51    -22.95     20.00
   34.5912     27.49     28.49    -21.88     20.00
   34.6013     26.55     28.47    -22.80     20.00
   34.6115     27.40     28.44    -21.92     20.00
   34.6217     26.84     28.42    -22.46     20.00
   34.6318     26.60     28.39    -22.68     20.00
   34.6420     27.66     28.37    -21.59     20.00
   34.6521     27.53     28.34    -21.70     20.00
   34.6623     27.10     28.32    -22.10     20.00
   34.6725     26.47     28.29    -22.71     20.00
   34.6826     27.63     28.27    -21.52     20.00
   34.6928     26.59     28.25    -22.54     20.00
   34.7030     27.83     28.22    -21.28     20.00
   34.7131     27.01     28.20    -22.07     20.00
   34.7233     26.94     28.18    -22.12     20.00
   34.7335     27.04     28.15    -22.00     20.00
   34.7436     27.18     28.13    -21.83     20.00
   34.7538     26.37     28.10    -22.62     20.00
   34.7640     27.29     28.08    -21.67     20.00
   34.7741     26.43     28.06    -22.51     20.00
   34.7843     26.35     28.03    -22.57     20.00
   34.7944     27.36     28.01    -21.54     20.00
   34.8046     26.95     27.99    -21.92     20.00
   34.8148     26.82     27.97    -22.03     20.00
   34.8249     25.87     27.94    -22.96     20.00
   34.8351     26.73     27.92    -22.07     20.00
   34.8453     26.20     27.90    -22.58     20.00
   34.8554     26.77     27.87    -21.99     20.00
   34.8656     27.15     27.85    -21.59     20.00
   34.8758     27.27     27.83    -21.44     20.00
   34.8859     25.98     27.81    -22.71     20.00
   34.8961     26.74     27.78    -21.93     20.00
   34.9063     26.16     27.76    -22.49     20.00
   34.9164     25.91     27.74    -22.71     20.00
   34.9266     25.88     27.72    -22.72     20.00
   34.9367     26.91     27.70    -21.67     20.00
   34.9469     27.01     27.68    -21.55     20.00
   34.9571     26.74     27.65    -21.80     20.00
   34.9672     26.18     27.63    -22.34     20.00
   34.9774     26.49     27.61    -22.00     20.00
   34.9876     26.36     27.59    -22.11     20.00
   34.9977     26.65     27.57    -21.80     20.00
   35.0079     26.93     27.55    -21.50     20.00
   35.0181     27.29     27.53    -21.12     20.00
   35.0282     25.96     27.50    -22.43     20.00
   35.0384     26.05     27.48    -22.32     20.00
   35.0486     26.10     27.46    -22.25     20.00
   35.0587     26.08     27.44    -22.25     20.00
   35.0689     26.05     27.42    -22.26     20.00
   35.0791     26.18     27.40    -22.10     20.00
   35.0892     26.27     27.38    -21.99     20.00
   35.0994     26.35     27.36    -21.89     20.00
   35.1095     26.31     27.34    -21.91     20.00
   35.1197     26.03     27.32    -22.17     20.00
   35.1299     26.47     27.30    -21.71     20.00
   35.1400     26.26     27.28    -21.90     20.00
   35.1502     26.10     27.26    -22.04     20.00
   35.1604     26.37     27.24    -21.75     20.00
   35.1705     26.23     27.22    -21.87     20.00
   35.1807     25.99     27.20    -22.10     20.00
   35.1909     25.87     27.18    -22.20     20.00
   35.2010     26.82     27.16    -21.23     20.00
   35.2112     26.01     27.14    -22.02     20.00
   35.2214     25.24     27.12    -22.77     20.00
   35.2315     26.27     27.10    -21.72     20.00
   35.2417     26.17     27.09    -21.80     20.00
   35.2518     26.58     27.07    -21.37     20.00
   35.2620     25.67     27.05    -22.26     20.00
   35.2722     25.62     27.03    -22.29     20.00
   35.2823     26.27     27.01    -21.62     20.00
   35.2925     25.73     26.99    -22.15     20.00
   35.3027     26.38     26.97    -21.48     20.00
   35.3128     26.02     26.96    -21.82     20.00
   35.3230     25.77     26.94    -22.05     20.00
   35.3332     25.73     26.92    -22.07     20.00
   35.3433     25.05     26.90    -22.74     20.00
   35.3535     25.93     26.88    -21.84     20.00
   35.3637     26.07     26.87    -21.68     20.00
   35.3738     26.10     26.85    -21.63     20.00
   35.3840     25.99     26.83    -21.72     20.00
   35.3942     26.44     26.81    -21.26     20.00
   35.4043     25.83     26.80    -21.85     20.00
   35.4145     25.98     26.78    -21.68     20.00
   35.4246     26.74     26.76    -20.90     20.00
   35.4348     25.93     26.74    -21.70     20.00
   35.4450     26.43     26.73    -21.18     20.00
   35.4551     26.13     26.71    -21.46     20.00
   35.4653     25.90     26.69    -21.68     20.00
   35.4755     26.46     26.68    -21.10     20.00
   35.4856     25.46     26.66    -22.08     20.00
   35.4958     25.26     26.64    -22.27     20.00
   35.5060     25.36     26.63    -22.15     20.00
   35.5161     25.79     26.61    -21.70     20.00
   35.5263     25.74     26.59    -21.74     20.00
   35.5365     26.13     26.58    -21.33     20.00
   35.5466     25.57     26.56    -21.87     20.00
   35.5568     25.66     26.54    -21.77     20.00
   35.5669     25.73     26.53    -21.68     20.00
   35.5771     25.93     26.51    -21.47     20.00
   35.5873     25.68     26.50    -21.70     20.00
   35.5974     26.41     26.48    -20.95     20.00
   35.6076     25.20     26.46    -22.15     20.00
   35.6178     25.49     26.45    -21.84     20.00
   35.6279     25.58     26.43    -21.74     20.00
   35.6381     25.38     26.42    -21.92     20.00
   35.6483     25.35     26.40    -21.94     20.00
   35.6584     25.77     26.39    -21.50     20.00
   35.6686     25.72     26.37    -21.54     20.00
   35.6788     26.15     26.36    -21.09     20.00
   35.6889     25.84     26.34    -21.39     20.00
   35.6991     25.10     26.33    -22.11     20.00
   35.7093     24.97     26.31    -22.23     20.00
   35.7194     25.12     26.30    -22.06     20.00
   35.7296     25.37     26.28    -21.80     20.00
   35.7397     25.24     26.27    -21.91     20.00
   35.7499     25.67     26.25    -21.47     20.00
   35.7601     25.47     26.24    -21.65     20.00
   35.7702     25.12     26.22    -21.99     20.00
   35.7804     25.05     26.21    -22.04     20.00
   35.7906     25.49     26.20    -21.59     20.00
   35.8007     25.69     26.18    -21.38     20.00
   35.8109     25.55     26.17    -21.50     20.00
   35.8211     25.26     26.15    -21.78     20.00
   35.8312     25.42     26.14    -21.60     20.00
   35.8414     26.26     26.13    -20.75     20.00
   35.8516     25.30     26.11    -21.70     20.00
   35.8617     25.07     26.10    -21.91     20.00
   35.8719     25.55     26.09    -21.42     20.00
   35.8820     25.48     26.07    -21.48     20.00
   35.8922     24.98     26.06    -21.96     20.00
   35.9024     24.95     26.04    -21.98     20.00
   35.9125     25.08     26.03    -21.84     20.00
   35.9227     25.68     26.02    -21.22     20.00
   35.9329     25.43     26.01    -21.46     20.00
   35.9430     25.46     25.99    -21.42     20.00
   35.9532     25.05     25.98    -21.81     20.00
   35.9634     25.64     25.97    -21.21     20.00
   35.9735     25.13     25.95    -21.71     20.00
   35.9837     25.30     25.94    -21.52     20.00
   35.9939     25.68     25.93    -21.13     20.00
